#	Time(fs)	Total Energy(kcal/mol)	Potential Energy(kcal/mol)	Kinetic Energy(kcal/mol)	Temperature(K)	Pressure(atm)	Volume(A^3)	Conserved Quantity(kcal/mol)
	0	505.85717	-81.483949	587.34111	304.54388	20381.945	7259.3462	505.85717
	10	506.46363	-72.091869	578.55549	299.98842	20339.083	7259.3462	506.46363
	20	506.23953	-51.829679	558.06921	289.36602	20474.058	7259.3462	506.23953
	30	505.95834	-86.894028	592.85237	307.40154	20667.885	7259.3462	505.95834
	40	506.25451	-72.29468	578.54919	299.98515	20543.305	7259.3462	506.25451
	50	505.93607	-78.697718	584.63379	303.1401	20698.782	7259.3462	505.93607
	60	506.34538	-81.588005	587.93338	304.85098	20594.393	7259.3462	506.34538
	70	505.78118	-74.8363	580.61748	301.05759	20665.181	7259.3462	505.78118
	80	506.4104	-80.698293	587.10869	304.42337	20558.362	7259.3462	506.4104
	90	506.25775	-61.133666	567.39141	294.1997	19984.389	7259.3462	506.25775
	100	506.28277	-71.334737	577.61751	299.50207	20036.307	7259.3462	506.28277
	110	505.92948	-82.690329	588.61981	305.2069	19979.232	7259.3462	505.92948
	120	505.78388	-78.809083	584.59297	303.11893	19668.031	7259.3462	505.78388
	130	506.3324	-85.686194	592.0186	306.96921	19485.836	7259.3462	506.3324
	140	505.92751	-63.550138	569.47765	295.28144	19115.727	7259.3462	505.92751
	150	506.69399	-64.635048	571.32903	296.24141	19306.38	7259.3462	506.69399
	160	505.76005	-71.917677	577.67773	299.53329	20122.803	7259.3462	505.76005
	170	505.9314	-56.183847	562.11525	291.46394	20297.12	7259.3462	505.9314
	180	506.39008	-73.682064	580.07214	300.77483	20062.901	7259.3462	506.39008
	190	505.99885	-59.278242	565.27709	293.1034	19706.987	7259.3462	505.99885
	200	506.32101	-62.29241	568.61342	294.83333	19122.413	7259.3462	506.32101
	210	506.1332	-65.809276	571.94248	296.55949	19200.516	7259.3462	506.1332
	220	506.317	-66.208241	572.52524	296.86166	18990.935	7259.3462	506.317
	230	506.10845	-87.930147	594.0386	308.01661	19054.475	7259.3462	506.10845
	240	505.7834	-75.749894	581.53329	301.53245	19201.683	7259.3462	505.7834
	250	505.87906	-80.856676	586.73574	304.22998	19353.249	7259.3462	505.87906
	260	506.33685	-50.767435	557.10428	288.86569	19284.619	7259.3462	506.33685
	270	506.57623	-49.566705	556.14294	288.36722	19194.318	7259.3462	506.57623
	280	506.05895	-76.923224	582.98217	302.28371	19451.205	7259.3462	506.05895
	290	505.95199	-67.82607	573.77805	297.51126	19749.871	7259.3462	505.95199
	300	505.92585	-76.090404	582.01625	301.78287	20105.235	7259.3462	505.92585
	310	506.52744	-50.530254	557.05769	288.84154	20235.273	7259.3462	506.52744
	320	506.36661	-67.48368	573.85029	297.54871	20361.135	7259.3462	506.36661
	330	505.82821	-88.222046	594.05026	308.02266	20535.272	7259.3462	505.82821
	340	506.04256	-99.572154	605.61471	314.01897	20313.372	7259.3462	506.04256
	350	505.91998	-108.30722	614.2272	318.48466	20279.876	7259.3462	505.91998
	360	506.19836	-77.154427	583.35279	302.47588	19868.996	7259.3462	506.19836
	370	506.24762	-84.221016	590.46864	306.16554	19824.881	7259.3462	506.24762
	380	506.24418	-75.006746	581.25093	301.38604	19462.189	7259.3462	506.24418
	390	505.93643	-102.13001	608.06644	315.29022	19351.239	7259.3462	505.93643
	400	505.88234	-92.995763	598.8781	310.52596	19236.886	7259.3462	505.88234
	410	506.5998	-52.564757	559.16456	289.93398	19419.729	7259.3462	506.5998
	420	506.25384	-78.744119	584.99796	303.32892	19664.464	7259.3462	506.25384
	430	505.88586	-70.327072	576.21294	298.77378	19978.146	7259.3462	505.88586
	440	506.06147	-80.982075	587.04354	304.38958	20570.737	7259.3462	506.06147
	450	505.88831	-88.879818	594.76813	308.39488	20943.79	7259.3462	505.88831
	460	506.36493	-63.904275	570.2692	295.69187	20781.669	7259.3462	506.36493
	470	505.6752	-99.74149	605.41669	313.9163	20867.69	7259.3462	505.6752
	480	506.39064	-62.838294	569.22894	295.15248	20800.063	7259.3462	506.39064
	490	506.30036	-62.672418	568.97277	295.01966	21193.548	7259.3462	506.30036
	500	505.92602	-83.758309	589.68433	305.75887	21249.752	7259.3462	505.92602
	510	505.99256	-78.496359	584.48892	303.06498	20828.165	7259.3462	505.99256
	520	506.02104	-100.70171	606.72274	314.5935	20499.488	7259.3462	506.02104
	530	505.86733	-89.973571	595.8409	308.95112	20194.096	7259.3462	505.86733
	540	506.15942	-83.305737	589.46516	305.64523	20234.74	7259.3462	506.15942
	550	506.50649	-83.150082	589.65657	305.74447	20098.082	7259.3462	506.50649
	560	505.96969	-75.733335	581.70302	301.62046	20396.255	7259.3462	505.96969
	570	506.00948	-95.564292	601.57377	311.9237	20096.995	7259.3462	506.00948
	580	505.95685	-84.557198	590.51405	306.18909	19833.536	7259.3462	505.95685
	590	506.1426	-88.381642	594.52424	308.26842	20048.749	7259.3462	506.1426
	600	505.98179	-90.858038	596.83983	309.46909	20166.605	7259.3462	505.98179
	610	505.8782	-76.439372	582.31757	301.93911	20060.373	7259.3462	505.8782
	620	506.44125	-68.265513	574.70676	297.99281	19912.367	7259.3462	506.44125
	630	506.35727	-59.655321	566.01259	293.48477	20163.268	7259.3462	506.35727
	640	505.92522	-85.382616	591.30784	306.60068	20583.986	7259.3462	505.92522
	650	505.55902	-91.416981	596.976	309.53969	20266.089	7259.3462	505.55902
	660	506.54311	-62.93305	569.47616	295.28067	20229.831	7259.3462	506.54311
	670	505.95072	-68.087329	574.03805	297.64607	20144.445	7259.3462	505.95072
	680	506.62817	-49.184593	555.81276	288.19603	19712.461	7259.3462	506.62817
	690	505.6037	-93.216329	598.82002	310.49584	19698.034	7259.3462	505.6037
	700	506.21544	-75.393092	581.60853	301.57146	19524.954	7259.3462	506.21544
	710	505.91277	-76.673064	582.58584	302.07821	19258.682	7259.3462	505.91277
	720	506.20879	-64.726911	570.9357	296.03746	19031.637	7259.3462	506.20879
	730	506.39005	-52.126232	558.51628	289.59783	19004.63	7259.3462	506.39005
	740	506.07528	-67.3119	573.38718	297.30858	19240.953	7259.3462	506.07528
	750	505.95734	-69.124789	575.08213	298.18744	19351.419	7259.3462	505.95734
	760	505.91937	-88.848178	594.76755	308.39458	19139.494	7259.3462	505.91937
	770	506.56752	-72.778458	579.34598	300.3983	18844.382	7259.3462	506.56752
	780	505.70649	-85.800846	591.50733	306.70412	18729.741	7259.3462	505.70649
	790	506.4637	-80.230623	586.69433	304.20851	18780.068	7259.3462	506.4637
	800	506.11362	-71.276771	577.39039	299.3843	19033.134	7259.3462	506.11362
	810	506.40217	-78.411056	584.81322	303.23314	18878.14	7259.3462	506.40217
	820	505.74256	-99.319785	605.06235	313.73257	19140.34	7259.3462	505.74256
	830	505.48819	-91.167516	596.65571	309.37361	19574.399	7259.3462	505.48819
	840	506.6553	-60.152631	566.80793	293.89716	19885.777	7259.3462	506.6553
	850	505.97715	-64.937893	570.91504	296.02675	20098.17	7259.3462	505.97715
	860	506.53982	-50.116172	556.65599	288.63325	19868.133	7259.3462	506.53982
	870	505.50096	-80.077655	585.57862	303.63	19592.394	7259.3462	505.50096
	880	506.23087	-69.686026	575.9169	298.62028	19137.172	7259.3462	506.23087
	890	505.99725	-78.477157	584.47441	303.05746	18815.231	7259.3462	505.99725
	900	505.86196	-71.380588	577.24255	299.30764	18561.146	7259.3462	505.86196
	910	506.44244	-62.499498	568.94194	295.00367	18414.559	7259.3462	506.44244
	920	505.89995	-70.275329	576.17528	298.75425	18318.199	7259.3462	505.89995
	930	506.37211	-62.389245	568.76136	294.91004	18417.338	7259.3462	506.37211
	940	506.03369	-72.409916	578.44361	299.93041	18809.706	7259.3462	506.03369
	950	506.34341	-72.433736	578.77715	300.10335	18639.05	7259.3462	506.34341
	960	506.04343	-78.612693	584.65612	303.15168	18757.837	7259.3462	506.04343
	970	506.18144	-88.353555	594.535	308.274	19017.741	7259.3462	506.18144
	980	506.20407	-85.486015	591.69009	306.79888	19353.55	7259.3462	506.20407
	990	506.46681	-64.445741	570.91255	296.02546	19719.056	7259.3462	506.46681
	1000	505.85644	-86.057318	591.91375	306.91485	19730.996	7259.3462	505.85644
	1010	506.27583	-72.56939	578.84522	300.13865	19369.232	7259.3462	506.27583
	1020	506.12928	-73.081999	579.21128	300.32846	19173.408	7259.3462	506.12928
	1030	506.41883	-56.96079	563.37962	292.11954	19768.107	7259.3462	506.41883
	1040	506.39717	-49.703876	556.10105	288.34551	19627.961	7259.3462	506.39717
	1050	505.58065	-80.774757	586.35541	304.03278	19231.336	7259.3462	505.58065
	1060	506.48699	-66.396819	572.8838	297.04758	18638.7	7259.3462	506.48699
	1070	505.70315	-71.32387	577.02702	299.19589	18950.632	7259.3462	505.70315
	1080	506.29488	-65.354001	571.64888	296.40725	19260.063	7259.3462	506.29488
	1090	506.23339	-51.470385	557.70378	289.17654	18947.12	7259.3462	506.23339
	1100	505.88762	-68.303767	574.19139	297.72558	19063.145	7259.3462	505.88762
	1110	506.41578	-60.789955	567.20573	294.10343	18920.863	7259.3462	506.41578
	1120	506.4016	-58.19517	564.59677	292.75065	19019.743	7259.3462	506.4016
	1130	505.78463	-103.3788	609.16344	315.85903	19360.466	7259.3462	505.78463
	1140	505.78332	-100.78153	606.56485	314.51163	19198.53	7259.3462	505.78332
	1150	506.37649	-80.99597	587.37246	304.56013	19248.594	7259.3462	506.37649
	1160	506.2302	-83.556668	589.78687	305.81203	19369.723	7259.3462	506.2302
	1170	506.20602	-64.121759	570.32777	295.72224	19541.46	7259.3462	506.20602
	1180	505.74096	-83.284317	589.02528	305.41714	19969.473	7259.3462	505.74096
	1190	506.20161	-59.082364	565.28397	293.10697	19387.765	7259.3462	506.20161
	1200	506.49592	-49.947666	556.44359	288.52312	19172.659	7259.3462	506.49592
	1210	505.55712	-91.090297	596.64742	309.36932	19721.461	7259.3462	505.55712
	1220	506.35565	-56.817101	563.17275	292.01227	19450.326	7259.3462	506.35565
	1230	505.98878	-83.549778	589.53856	305.68328	19604.223	7259.3462	505.98878
	1240	506.3984	-77.419733	583.81813	302.71717	19460.742	7259.3462	506.3984
	1250	505.98793	-72.294667	578.28259	299.84692	19520.837	7259.3462	505.98793
	1260	505.73102	-84.013562	589.74459	305.79011	20012.067	7259.3462	505.73102
	1270	506.39726	-48.109747	554.507	287.51897	19910.014	7259.3462	506.39726
	1280	505.92836	-61.825097	567.75346	294.38743	20013.035	7259.3462	505.92836
	1290	506.27946	-54.605185	560.88464	290.82586	19421.202	7259.3462	506.27946
	1300	506.05166	-69.884405	575.93606	298.63021	19027.843	7259.3462	506.05166
	1310	505.79413	-90.383928	596.17805	309.12595	18991.114	7259.3462	505.79413
	1320	506.22691	-74.836556	581.06347	301.28884	19146.619	7259.3462	506.22691
	1330	506.24463	-83.138625	589.38325	305.60275	19006.345	7259.3462	506.24463
	1340	505.93932	-79.021382	584.9607	303.3096	18899.068	7259.3462	505.93932
	1350	506.16924	-79.441231	585.61047	303.64652	19434.366	7259.3462	506.16924
	1360	505.76222	-69.91861	575.68083	298.49787	19894.025	7259.3462	505.76222
	1370	506.59918	-44.934131	551.53331	285.97707	20002.825	7259.3462	506.59918
	1380	505.84673	-67.073037	572.91977	297.06623	20592.531	7259.3462	505.84673
	1390	505.98538	-60.002448	565.98782	293.47193	20338.529	7259.3462	505.98538
	1400	506.14105	-81.786247	587.9273	304.84782	19960.521	7259.3462	506.14105
	1410	505.91144	-81.184384	587.09583	304.4167	20335.097	7259.3462	505.91144
	1420	506.39318	-68.473299	574.86648	298.07562	21069.119	7259.3462	506.39318
	1430	505.83702	-73.885584	579.7226	300.59358	21203.395	7259.3462	505.83702
	1440	506.39068	-45.990386	552.38106	286.41665	20977.869	7259.3462	506.39068
	1450	505.90762	-82.827138	588.73476	305.2665	20776.443	7259.3462	505.90762
	1460	506.34131	-47.822346	554.16366	287.34094	20788.33	7259.3462	506.34131
	1470	505.81309	-73.693413	579.50651	300.48154	20888.075	7259.3462	505.81309
	1480	506.17816	-72.67466	578.85282	300.14259	20737.62	7259.3462	506.17816
	1490	506.22361	-41.923989	548.1476	284.22154	20699.478	7259.3462	506.22361
	1500	506.20471	-67.136857	573.34157	297.28493	20642.991	7259.3462	506.20471
	1510	506.51765	-55.31525	561.8329	291.31754	20432.878	7259.3462	506.51765
	1520	505.69419	-82.127144	587.82133	304.79288	20476.749	7259.3462	505.69419
	1530	505.99946	-91.09074	597.0902	309.59891	20007.567	7259.3462	505.99946
	1540	506.06183	-63.155986	569.21782	295.14672	19612.724	7259.3462	506.06183
	1550	506.47399	-57.861255	564.33524	292.61504	19423.273	7259.3462	506.47399
	1560	506.00195	-65.300083	571.30204	296.22741	19261.168	7259.3462	506.00195
	1570	505.82952	-60.016827	565.84634	293.39857	19320.215	7259.3462	505.82952
	1580	506.2064	-64.70561	570.91201	296.02518	18710.303	7259.3462	506.2064
	1590	505.99191	-63.41269	569.4046	295.24357	18192.575	7259.3462	505.99191
	1600	506.18603	-59.062954	565.24899	293.08883	18246.601	7259.3462	506.18603
	1610	505.76788	-70.186396	575.95428	298.63966	18472.109	7259.3462	505.76788
	1620	506.6201	-47.79783	554.41793	287.47279	18303.153	7259.3462	506.6201
	1630	506.18605	-70.224742	576.41079	298.87637	18478.001	7259.3462	506.18605
	1640	505.64926	-101.35971	607.00897	314.74191	18709.136	7259.3462	505.64926
	1650	506.07692	-86.033114	592.11003	307.01662	18986.346	7259.3462	506.07692
	1660	506.2295	-71.974216	578.20372	299.80602	19584.765	7259.3462	506.2295
	1670	506.44588	-64.663769	571.10965	296.12766	20256.26	7259.3462	506.44588
	1680	506.01777	-69.998296	576.01607	298.6717	20653.1	7259.3462	506.01777
	1690	506.21969	-75.957451	582.17714	301.86629	20972.278	7259.3462	506.21969
	1700	505.71121	-103.70245	609.41366	315.98878	21537.224	7259.3462	505.71121
	1710	506.25532	-68.693117	574.94843	298.11812	21849.951	7259.3462	506.25532
	1720	505.86357	-93.143917	599.00749	310.59304	21730.152	7259.3462	505.86357
	1730	506.4897	-75.102702	581.5924	301.5631	21366.99	7259.3462	506.4897
	1740	506.03474	-79.926068	585.96081	303.82817	21238.698	7259.3462	506.03474
	1750	505.72187	-100.8239	606.54577	314.50174	21588.288	7259.3462	505.72187
	1760	506.45235	-89.420177	595.87253	308.96753	21342.135	7259.3462	506.45235
	1770	505.60483	-100.65774	606.26257	314.3549	20921.573	7259.3462	505.60483
	1780	506.34407	-96.081011	602.42508	312.36511	20542.777	7259.3462	506.34407
	1790	505.91375	-87.650778	593.56452	307.7708	20451.757	7259.3462	505.91375
	1800	506.41526	-65.450312	571.86558	296.51961	20433.808	7259.3462	506.41526
	1810	506.11494	-68.456905	574.57185	297.92285	20144.089	7259.3462	506.11494
	1820	505.95662	-65.687077	571.64369	296.40457	19459.47	7259.3462	505.95662
	1830	506.04501	-66.890517	572.93552	297.0744	19313.234	7259.3462	506.04501
	1840	506.09283	-59.585796	565.67862	293.3116	18966.529	7259.3462	506.09283
	1850	506.10014	-62.773392	568.87353	294.9682	19348.019	7259.3462	506.10014
	1860	505.66421	-80.903318	586.56753	304.14276	19488.386	7259.3462	505.66421
	1870	506.23915	-74.703372	580.94252	301.22613	19060.293	7259.3462	506.23915
	1880	506.14417	-74.620123	580.76429	301.13371	18998.464	7259.3462	506.14417
	1890	506.21922	-81.614846	587.83407	304.79948	19116.365	7259.3462	506.21922
	1900	506.11066	-82.628338	588.739	305.2687	19540.052	7259.3462	506.11066
	1910	506.31638	-84.841353	591.15773	306.52284	19802.996	7259.3462	506.31638
	1920	505.75461	-101.59675	607.35136	314.91945	19951.697	7259.3462	505.75461
	1930	506.06217	-92.089229	598.1514	310.14915	19999.516	7259.3462	506.06217
	1940	505.97126	-93.890896	599.86216	311.0362	20243.464	7259.3462	505.97126
	1950	506.20526	-71.208872	577.41413	299.39661	20776.005	7259.3462	506.20526
	1960	506.16917	-72.076289	578.24546	299.82767	21171.007	7259.3462	506.16917
	1970	506.38451	-68.034234	574.41875	297.84347	20677.916	7259.3462	506.38451
	1980	506.00549	-85.228598	591.23409	306.56244	20671.496	7259.3462	506.00549
	1990	505.87549	-88.860617	594.73611	308.37828	20583.376	7259.3462	505.87549
	2000	506.18221	-75.282817	581.46502	301.49705	20933.731	7259.3462	506.18221
	2010	505.82214	-83.420573	589.24272	305.52988	20620.075	7259.3462	505.82214
	2020	506.46874	-76.312605	582.78135	302.17958	20103.039	7259.3462	506.46874
	2030	505.64422	-82.840477	588.4847	305.13684	20165.425	7259.3462	505.64422
	2040	506.10245	-76.155418	582.25787	301.90815	19957.051	7259.3462	506.10245
	2050	506.44573	-70.284888	576.73062	299.0422	19619.154	7259.3462	506.44573
	2060	506.02093	-77.156482	583.17741	302.38494	19301.901	7259.3462	506.02093
	2070	506.2495	-71.794534	578.04403	299.72322	18595.825	7259.3462	506.2495
	2080	505.99673	-77.187436	583.18417	302.38845	18784.097	7259.3462	505.99673
	2090	506.39767	-65.410176	571.80784	296.48968	18712.69	7259.3462	506.39767
	2100	506.01155	-71.08497	577.09652	299.23193	18946.91	7259.3462	506.01155
	2110	505.67047	-95.885997	601.55646	311.91472	18818.237	7259.3462	505.67047
	2120	506.326	-72.208648	578.53465	299.97762	18532.328	7259.3462	506.326
	2130	506.22385	-75.740337	581.96418	301.75587	18591.946	7259.3462	506.22385
	2140	506.25079	-68.938684	575.18947	298.2431	19289.698	7259.3462	506.25079
	2150	506.05638	-76.244947	582.30133	301.93069	19586.959	7259.3462	506.05638
	2160	506.11989	-85.322535	591.44242	306.67046	19609.603	7259.3462	506.11989
	2170	506.15246	-88.789307	594.94176	308.48491	19701.539	7259.3462	506.15246
	2180	505.65217	-102.04646	607.69863	315.09951	19970.934	7259.3462	505.65217
	2190	506.38069	-67.379188	573.75988	297.50183	20383.645	7259.3462	506.38069
	2200	506.26135	-56.291073	562.55242	291.69062	20493.434	7259.3462	506.26135
	2210	505.99562	-73.74593	579.74155	300.60341	20766.555	7259.3462	505.99562
	2220	506.66534	-48.096134	554.76148	287.65092	20151.742	7259.3462	506.66534
	2230	505.93744	-67.065277	573.00272	297.10924	20464.866	7259.3462	505.93744
	2240	506.14957	-70.35934	576.50891	298.92724	20760.438	7259.3462	506.14957
	2250	505.83056	-71.900557	577.73111	299.56097	20801.07	7259.3462	505.83056
	2260	505.94317	-74.357937	580.30111	300.89354	20512.674	7259.3462	505.94317
	2270	506.54776	-57.942737	564.49049	292.69554	19444.908	7259.3462	506.54776
	2280	505.64964	-82.386445	588.03609	304.90423	19465.628	7259.3462	505.64964
	2290	506.26575	-61.157137	567.42289	294.21603	19130.519	7259.3462	506.26575
	2300	506.39916	-48.645343	555.0445	287.79767	19004.158	7259.3462	506.39916
	2310	506.17235	-72.082778	578.25512	299.83268	19210.637	7259.3462	506.17235
	2320	505.6285	-70.687333	576.31583	298.82713	19118.327	7259.3462	505.6285
	2330	506.08554	-58.617875	564.70341	292.80594	19280.801	7259.3462	506.08554
	2340	506.36624	-48.23629	554.60253	287.5685	19163.871	7259.3462	506.36624
	2350	506.18378	-56.135158	562.31893	291.56956	19405.657	7259.3462	506.18378
	2360	505.93898	-66.319621	572.2586	296.7234	19071.516	7259.3462	505.93898
	2370	505.94358	-74.571363	580.51494	301.00442	18810.161	7259.3462	505.94358
	2380	506.26223	-65.083027	571.34525	296.24982	19197.582	7259.3462	506.26223
	2390	505.76389	-64.235414	569.9993	295.55193	19281.489	7259.3462	505.76389
	2400	506.58365	-61.537915	568.12157	294.5783	19029.518	7259.3462	506.58365
	2410	506.2192	-64.024347	570.24355	295.67857	18626.115	7259.3462	506.2192
	2420	505.77941	-93.261794	599.0412	310.61052	19060.064	7259.3462	505.77941
	2430	505.7094	-94.709381	600.41878	311.32482	19477.455	7259.3462	505.7094
	2440	506.02716	-68.359684	574.38684	297.82692	19521.152	7259.3462	506.02716
	2450	506.80315	-60.288762	567.09192	294.04441	19090.272	7259.3462	506.80315
	2460	505.87764	-61.449665	567.3273	294.16646	18724.209	7259.3462	505.87764
	2470	506.01237	-72.482291	578.49466	299.95688	18881.105	7259.3462	506.01237
	2480	506.24862	-74.209291	580.45791	300.97485	18824.533	7259.3462	506.24862
	2490	506.06894	-66.573488	572.64242	296.92242	18602.318	7259.3462	506.06894
	2500	505.59565	-106.88594	612.48159	317.57954	18221.764	7259.3462	505.59565
	2510	506.06304	-81.039972	587.10301	304.42042	17969.693	7259.3462	506.06304
	2520	506.40968	-73.231764	579.64144	300.5515	18054.471	7259.3462	506.40968
	2530	506.37155	-87.465029	593.83658	307.91186	18838.456	7259.3462	506.37155
	2540	505.79683	-88.619095	594.41592	308.21226	19434.229	7259.3462	505.79683
	2550	506.10163	-92.372335	598.47396	310.3164	19803.63	7259.3462	506.10163
	2560	505.85452	-94.76739	600.62191	311.43014	20122.43	7259.3462	505.85452
	2570	506.04873	-83.085646	589.13438	305.47371	20545.894	7259.3462	506.04873
	2580	506.08426	-74.77847	580.86273	301.18475	20839.243	7259.3462	506.08426
	2590	506.0364	-66.926112	572.96251	297.08839	20598.991	7259.3462	506.0364
	2600	506.37054	-65.561958	571.93249	296.55431	20131.15	7259.3462	506.37054
	2610	505.89008	-73.70132	579.5914	300.52555	19921.717	7259.3462	505.89008
	2620	506.15714	-70.70921	576.86635	299.11258	20163.879	7259.3462	506.15714
	2630	506.0643	-64.134989	570.19929	295.65562	20164.045	7259.3462	506.0643
	2640	506.04161	-66.986571	573.02818	297.12244	19833.071	7259.3462	506.04161
	2650	506.27483	-67.062384	573.33721	297.28268	19926.984	7259.3462	506.27483
	2660	506.11643	-71.151211	577.26764	299.32065	19558.218	7259.3462	506.11643
	2670	506.15109	-83.843977	589.99507	305.91999	19579.98	7259.3462	506.15109
	2680	505.66351	-80.752288	586.4158	304.06409	19509.886	7259.3462	505.66351
	2690	506.28071	-73.696238	579.97695	300.72547	19460.08	7259.3462	506.28071
	2700	506.32712	-79.335174	585.66229	303.67339	19215.844	7259.3462	506.32712
	2710	506.05004	-72.497213	578.54726	299.98415	19232.893	7259.3462	506.05004
	2720	505.97058	-91.961489	597.93207	310.03543	19156.92	7259.3462	505.97058
	2730	506.14054	-89.551519	595.69206	308.87395	19102.544	7259.3462	506.14054
	2740	505.99456	-79.717139	585.7117	303.699	19269.752	7259.3462	505.99456
	2750	505.61731	-90.832175	596.44948	309.26669	19643.926	7259.3462	505.61731
	2760	506.13926	-46.810713	552.94997	286.71163	19509.483	7259.3462	506.13926
	2770	506.70694	-37.523441	544.23038	282.19041	19331.214	7259.3462	506.70694
	2780	506.14017	-43.687596	549.82776	285.09273	19233.136	7259.3462	506.14017
	2790	505.75966	-56.176606	561.93627	291.37114	19200.944	7259.3462	505.75966
	2800	506.0429	-69.532171	575.57507	298.44303	19660.746	7259.3462	506.0429
	2810	505.95668	-45.364826	551.3215	285.86725	19910.873	7259.3462	505.95668
	2820	505.70717	-67.519487	573.22666	297.22535	19766.195	7259.3462	505.70717
	2830	506.04531	-55.068557	561.11387	290.94472	19585.47	7259.3462	506.04531
	2840	506.52245	-44.302789	550.82524	285.60993	19363.001	7259.3462	506.52245
	2850	505.80046	-86.94889	592.74935	307.34812	19235.643	7259.3462	505.80046
	2860	505.72669	-81.117315	586.84401	304.28612	19003.031	7259.3462	505.72669
	2870	506.04465	-77.97365	584.0183	302.82096	19433.091	7259.3462	506.04465
	2880	506.20384	-58.809507	565.01334	292.96664	20184.944	7259.3462	506.20384
	2890	505.85467	-61.223367	567.07804	294.03722	20111.833	7259.3462	505.85467
	2900	505.98154	-77.719707	583.70125	302.65656	19733.252	7259.3462	505.98154
	2910	506.50341	-53.413693	559.9171	290.32418	19663.246	7259.3462	506.50341
	2920	505.71577	-65.773188	571.48896	296.32433	20010.693	7259.3462	505.71577
	2930	505.98972	-68.495857	574.48558	297.87812	19855.451	7259.3462	505.98972
	2940	506.01963	-70.710344	576.72997	299.04187	19102.433	7259.3462	506.01963
	2950	506.04891	-64.217176	570.26609	295.69026	19136.105	7259.3462	506.04891
	2960	506.25339	-56.417324	562.67071	291.75196	19524.111	7259.3462	506.25339
	2970	505.98938	-53.280306	559.26969	289.98849	19611.773	7259.3462	505.98938
	2980	506.7123	-49.545983	556.25828	288.42703	19589.477	7259.3462	506.7123
	2990	505.29771	-98.421625	603.71934	313.0362	19439.958	7259.3462	505.29771
	3000	505.86251	-79.838585	585.7011	303.69351	19049.664	7259.3462	505.86251
	3010	506.49519	-56.831606	563.32679	292.09215	19279.512	7259.3462	506.49519
	3020	505.98559	-62.635933	568.62152	294.83753	19265.179	7259.3462	505.98559
	3030	506.36791	-62.373847	568.74175	294.89987	19543.903	7259.3462	506.36791
	3040	505.5101	-83.704357	589.21446	305.51523	19318.595	7259.3462	505.5101
	3050	506.62827	-42.960439	549.58871	284.96878	19400.753	7259.3462	506.62827
	3060	505.91849	-78.339729	584.25822	302.94536	20148.66	7259.3462	505.91849
	3070	505.4736	-81.485485	586.95908	304.34579	20058.122	7259.3462	505.4736
	3080	506.5395	-44.366485	550.90599	285.6518	19883.48	7259.3462	506.5395
	3090	506.20136	-64.519646	570.72101	295.92614	19713.816	7259.3462	506.20136
	3100	506.17162	-49.040313	555.21194	287.88449	19877.762	7259.3462	506.17162
	3110	505.88248	-67.808551	573.69103	297.46614	20362.037	7259.3462	505.88248
	3120	506.11264	-65.129006	571.24165	296.1961	20451.973	7259.3462	506.11264
	3130	505.96749	-62.592323	568.55982	294.80554	19830.482	7259.3462	505.96749
	3140	505.99572	-71.394709	577.39043	299.38432	18948.144	7259.3462	505.99572
	3150	506.35078	-50.270506	556.62128	288.61525	18832.336	7259.3462	506.35078
	3160	506.30271	-46.805307	553.10802	286.79358	18965.714	7259.3462	506.30271
	3170	506.03652	-58.379185	564.4157	292.65676	19089.238	7259.3462	506.03652
	3180	505.67088	-86.541106	592.21198	307.06949	18634.991	7259.3462	505.67088
	3190	506.31634	-59.268356	565.5847	293.2629	18159.296	7259.3462	506.31634
	3200	505.88504	-74.513718	580.39875	300.94418	18283.094	7259.3462	505.88504
	3210	506.23718	-62.957312	569.1945	295.13463	18532.277	7259.3462	506.23718
	3220	506.37944	-38.346042	544.72548	282.44713	18776.243	7259.3462	506.37944
	3230	505.84846	-76.371763	582.22023	301.88863	18872.051	7259.3462	505.84846
	3240	506.01928	-61.158039	567.17732	294.08869	18852.174	7259.3462	506.01928
	3250	505.80509	-74.52183	580.32692	300.90693	19292.651	7259.3462	505.80509
	3260	506.08163	-70.828053	576.90968	299.13505	19342.343	7259.3462	506.08163
	3270	506.23014	-60.019792	566.24993	293.60783	19460.804	7259.3462	506.23014
	3280	505.91754	-76.451253	582.36879	301.96567	19410.446	7259.3462	505.91754
	3290	506.17535	-59.426875	565.60222	293.27199	19723.915	7259.3462	506.17535
	3300	506.42228	-61.211892	567.63418	294.32558	20077.862	7259.3462	506.42228
	3310	505.82453	-68.54106	574.36559	297.8159	20247.24	7259.3462	505.82453
	3320	505.94557	-61.265011	567.21058	294.10594	19680.385	7259.3462	505.94557
	3330	506.2011	-62.669984	568.87109	294.96693	19480.616	7259.3462	506.2011
	3340	506.54188	-40.018345	546.56023	283.39847	19187.382	7259.3462	506.54188
	3350	505.80275	-70.693542	576.49629	298.9207	19233.217	7259.3462	505.80275
	3360	505.94413	-65.488579	571.43271	296.29517	19337.047	7259.3462	505.94413
	3370	506.35672	-46.940276	553.29699	286.89157	19122.883	7259.3462	506.35672
	3380	505.91058	-79.366711	585.27729	303.47376	19313.485	7259.3462	505.91058
	3390	506.03289	-69.267824	575.30071	298.30078	19212.651	7259.3462	506.03289
	3400	505.70124	-73.617409	579.31865	300.38413	19464.931	7259.3462	505.70124
	3410	506.38811	-48.841427	555.22953	287.89361	19327.621	7259.3462	506.38811
	3420	506.36483	-34.895622	541.26045	280.65047	19139.509	7259.3462	506.36483
	3430	506.01601	-54.857595	560.8736	290.82014	19283.98	7259.3462	506.01601
	3440	506.07263	-46.236913	552.30955	286.37956	19216.67	7259.3462	506.07263
	3450	505.64963	-67.486902	573.13653	297.17862	19354.996	7259.3462	505.64963
	3460	505.96009	-61.338037	567.29813	294.15134	18677.531	7259.3462	505.96009
	3470	506.04058	-49.774114	555.81469	288.19703	17953.174	7259.3462	506.04058
	3480	506.53642	-37.363949	543.90037	282.0193	17900.008	7259.3462	506.53642
	3490	505.97882	-42.526407	548.50522	284.40697	17750.987	7259.3462	505.97882
	3500	505.77405	-70.496456	576.27051	298.80363	17956.123	7259.3462	505.77405
	3510	506.18286	-53.140922	559.32378	290.01654	17790.448	7259.3462	506.18286
	3520	505.92455	-67.83219	573.75674	297.50021	18068.604	7259.3462	505.92455
	3530	505.65765	-76.743227	582.40087	301.9823	18199.823	7259.3462	505.65765
	3540	506.02213	-47.979867	554.002	287.25712	18309.365	7259.3462	506.02213
	3550	506.63308	-46.324669	552.95775	286.71566	18556.813	7259.3462	506.63308
	3560	506.34629	-47.341984	553.68827	287.09445	19061.765	7259.3462	506.34629
	3570	505.7928	-82.245998	588.0388	304.90564	19350.209	7259.3462	505.7928
	3580	505.54957	-89.629679	595.17925	308.60805	19478.39	7259.3462	505.54957
	3590	506.58763	-52.543931	559.13156	289.91687	19405.787	7259.3462	506.58763
	3600	505.99452	-85.437438	591.43196	306.66504	19652.629	7259.3462	505.99452
	3610	506.18483	-66.891514	573.07635	297.14741	19662.417	7259.3462	506.18483
	3620	506.34841	-69.31068	575.65909	298.4866	19985.62	7259.3462	506.34841
	3630	505.90005	-87.259164	593.15922	307.56064	20011.369	7259.3462	505.90005
	3640	506.00267	-63.508603	569.51128	295.29888	20115.003	7259.3462	506.00267
	3650	506.06643	-66.226332	572.29277	296.74112	20342.707	7259.3462	506.06643
	3660	506.67591	-38.760811	545.43672	282.81591	19680.505	7259.3462	506.67591
	3670	506.04606	-62.491106	568.53717	294.79379	19296.6	7259.3462	506.04606
	3680	506.12556	-76.968675	583.09423	302.34182	19141.195	7259.3462	506.12556
	3690	505.84262	-79.187745	585.03036	303.34573	19224.296	7259.3462	505.84262
	3700	506.45242	-63.710136	570.16255	295.63658	19317.584	7259.3462	506.45242
	3710	505.57069	-93.632003	599.20269	310.69426	19268.183	7259.3462	505.57069
	3720	505.9536	-71.138452	577.09205	299.22961	19618.316	7259.3462	505.9536
	3730	506.76122	-27.83142	534.59264	277.19312	20177.769	7259.3462	506.76122
	3740	506.24046	-65.25868	571.49914	296.32961	20259.014	7259.3462	506.24046
	3750	506.02903	-69.269614	575.29864	298.2997	20114.395	7259.3462	506.02903
	3760	505.60176	-90.010655	595.61242	308.83266	19991.337	7259.3462	505.60176
	3770	506.23286	-84.986757	591.21962	306.55493	19732.529	7259.3462	506.23286
	3780	505.72536	-66.624831	572.35019	296.7709	19539.86	7259.3462	505.72536
	3790	506.54132	-59.63758	566.1789	293.571	19069.477	7259.3462	506.54132
	3800	506.38707	-51.684006	558.07108	289.36699	18531.122	7259.3462	506.38707
	3810	506.26059	-54.787882	561.04847	290.91081	18323.207	7259.3462	506.26059
	3820	505.75388	-80.547812	586.30169	304.00493	18545.067	7259.3462	505.75388
	3830	506.08216	-60.277393	566.35956	293.66467	18792.238	7259.3462	506.08216
	3840	506.42925	-59.671229	566.10048	293.53034	19112.27	7259.3462	506.42925
	3850	505.75764	-60.192538	565.95018	293.4524	19200.385	7259.3462	505.75764
	3860	506.32405	-57.241836	563.56588	292.21612	19064.137	7259.3462	506.32405
	3870	505.94398	-61.966552	567.91053	294.46887	19112.151	7259.3462	505.94398
	3880	506.37028	-51.225018	557.5953	289.12029	19442.213	7259.3462	506.37028
	3890	505.78508	-78.645849	584.43093	303.03491	19765	7259.3462	505.78508
	3900	506.22812	-55.548201	561.77632	291.28821	19658.762	7259.3462	506.22812
	3910	506.11002	-54.516955	560.62697	290.69226	19930.209	7259.3462	506.11002
	3920	505.67986	-71.014998	576.69485	299.02366	20205.32	7259.3462	505.67986
	3930	506.65122	-46.594301	553.24552	286.86488	20102.31	7259.3462	506.65122
	3940	505.39424	-78.107156	583.50139	302.55294	20506.393	7259.3462	505.39424
	3950	506.24383	-70.006115	576.24995	298.79297	19938.669	7259.3462	506.24383
	3960	505.79457	-67.002598	572.79717	297.00266	19540.959	7259.3462	505.79457
	3970	506.32857	-57.826622	564.15519	292.52168	19264.457	7259.3462	506.32857
	3980	506.20177	-69.638077	575.83985	298.58033	19177.559	7259.3462	506.20177
	3990	505.45891	-75.450884	580.9098	301.20916	19490.238	7259.3462	505.45891
	4000	506.583	-56.465799	563.0488	291.948	18891.808	7259.3462	506.583
	4010	505.4342	-98.023062	603.45726	312.90031	18988.019	7259.3462	505.4342
	4020	506.27902	-65.604378	571.88339	296.52885	19457.912	7259.3462	506.27902
	4030	505.78382	-75.659159	581.44298	301.48562	19824.552	7259.3462	505.78382
	4040	505.77153	-77.136807	582.90834	302.24543	19383.525	7259.3462	505.77153
	4050	506.5471	-39.434653	545.98175	283.09852	18775.569	7259.3462	506.5471
	4060	506.13897	-59.720304	565.85927	293.40527	18913.069	7259.3462	506.13897
	4070	506.20054	-63.930323	570.13086	295.62014	19473.336	7259.3462	506.20054
	4080	505.37391	-81.7731	587.14701	304.44324	19840.318	7259.3462	505.37391
	4090	505.99122	-65.498155	571.48938	296.32455	20010.797	7259.3462	505.99122
	4100	506.44186	-41.232324	547.67419	283.97607	20000.221	7259.3462	506.44186
	4110	506.05724	-51.557646	557.61489	289.13045	20031.346	7259.3462	506.05724
	4120	506.16371	-46.799864	552.96358	286.71869	19867.514	7259.3462	506.16371
	4130	505.86486	-64.235397	570.10026	295.60427	19559.272	7259.3462	505.86486
	4140	506.03042	-63.247746	569.27816	295.17801	19358.843	7259.3462	506.03042
	4150	505.79233	-77.559104	583.35143	302.47518	19212.63	7259.3462	505.79233
	4160	506.02805	-63.239304	569.26735	295.1724	19063.249	7259.3462	506.02805
	4170	505.8105	-60.757142	566.56764	293.77257	19266.299	7259.3462	505.8105
	4180	506.09711	-57.454119	563.55123	292.20852	19158.059	7259.3462	506.09711
	4190	506.32232	-36.140797	542.46311	281.27406	18717.612	7259.3462	506.32232
	4200	505.95755	-61.384615	567.34216	294.17417	18562.729	7259.3462	505.95755
	4210	505.71973	-54.67405	560.39378	290.57134	18327.808	7259.3462	505.71973
	4220	505.94022	-47.534893	553.47511	286.98392	18179.445	7259.3462	505.94022
	4230	506.1618	-57.821768	563.98357	292.43269	18157.453	7259.3462	506.1618
	4240	506.47685	-32.078691	538.55555	279.24794	17997.865	7259.3462	506.47685
	4250	505.66866	-65.259132	570.92779	296.03336	18471.668	7259.3462	505.66866
	4260	505.99388	-47.397296	553.39117	286.9404	18539.878	7259.3462	505.99388
	4270	506.32415	-42.855232	549.17939	284.75654	18362.802	7259.3462	506.32415
	4280	505.78895	-77.697616	583.48656	302.54524	18254.859	7259.3462	505.78895
	4290	506.05402	-55.195118	561.24914	291.01486	17733.464	7259.3462	506.05402
	4300	505.95731	-74.104213	580.06152	300.76932	18187.461	7259.3462	505.95731
	4310	505.91834	-56.081045	561.99939	291.40387	18506.386	7259.3462	505.91834
	4320	506.15623	-51.013317	557.16954	288.89953	18371.219	7259.3462	506.15623
	4330	505.92265	-71.257035	577.17968	299.27505	18961.79	7259.3462	505.92265
	4340	506.03353	-42.398389	548.43192	284.36897	19461.424	7259.3462	506.03353
	4350	505.78611	-64.548652	570.33477	295.72587	20027.917	7259.3462	505.78611
	4360	505.64168	-57.010186	562.65186	291.74219	20311.473	7259.3462	505.64168
	4370	506.51118	-41.970582	548.48177	284.39481	19983.586	7259.3462	506.51118
	4380	505.88855	-68.90521	574.79376	298.03792	19728.409	7259.3462	505.88855
	4390	506.03303	-51.546451	557.57948	289.11209	19277.066	7259.3462	506.03303
	4400	505.89125	-78.231915	584.12317	302.87533	18881.821	7259.3462	505.89125
	4410	505.88037	-71.406838	577.28721	299.3308	18613.758	7259.3462	505.88037
	4420	506.09869	-55.756101	561.85479	291.32889	18251.461	7259.3462	506.09869
	4430	505.56715	-74.023119	579.59027	300.52497	17970.867	7259.3462	505.56715
	4440	506.44693	-46.592936	553.03987	286.75824	17264.42	7259.3462	506.44693
	4450	506.14514	-60.96927	567.11441	294.05607	17215.641	7259.3462	506.14514
	4460	505.57103	-75.833196	581.40423	301.46553	17629.096	7259.3462	505.57103
	4470	505.94403	-64.80533	570.74936	295.94084	17753.91	7259.3462	505.94403
	4480	506.08987	-53.999915	560.08979	290.41372	17761.861	7259.3462	506.08987
	4490	506.32666	-45.656641	551.9833	286.2104	17906.844	7259.3462	506.32666
	4500	505.78957	-68.366425	574.156	297.70723	18659.419	7259.3462	505.78957
	4510	506.03865	-59.209965	565.24861	293.08863	19112.168	7259.3462	506.03865
	4520	506.08674	-64.988143	571.07489	296.10963	19419.936	7259.3462	506.08674
	4530	505.92249	-83.383473	589.30596	305.56268	19675.772	7259.3462	505.92249
	4540	505.96634	-67.699824	573.66617	297.45324	19203.871	7259.3462	505.96634
	4550	506.29456	-73.491251	579.78581	300.62636	19329.296	7259.3462	506.29456
	4560	506.20551	-64.724419	570.92993	296.03447	19262.56	7259.3462	506.20551
	4570	505.65918	-66.970998	572.63018	296.91607	19281.038	7259.3462	505.65918
	4580	506.44307	-58.484052	564.92712	292.92194	19258.125	7259.3462	506.44307
	4590	506.08077	-38.241277	544.32205	282.23794	19397.675	7259.3462	506.08077
	4600	505.75247	-66.907429	572.6599	296.93148	19796.941	7259.3462	505.75247
	4610	506.19935	-49.553196	555.75254	288.1648	19598.021	7259.3462	506.19935
	4620	506.1145	-40.760647	546.87515	283.56176	19419.287	7259.3462	506.1145
	4630	506.39809	-58.274577	564.67267	292.79	19668.987	7259.3462	506.39809
	4640	505.76967	-44.652453	550.42213	285.40091	19644.64	7259.3462	505.76967
	4650	505.77151	-65.72745	571.49896	296.32952	20115.816	7259.3462	505.77151
	4660	506.13585	-52.464846	558.60069	289.6416	20311.89	7259.3462	506.13585
	4670	506.22515	-50.020897	556.24604	288.42069	19990.731	7259.3462	506.22515
	4680	505.5344	-89.60111	595.13551	308.58537	20570.812	7259.3462	505.5344
	4690	506.12631	-49.705193	555.8315	288.20574	20241.491	7259.3462	506.12631
	4700	506.03753	-71.282889	577.32042	299.34802	20021.835	7259.3462	506.03753
	4710	505.72354	-85.155134	590.87868	306.37815	19668.099	7259.3462	505.72354
	4720	506.34679	-44.876682	551.22347	285.81642	19340.577	7259.3462	506.34679
	4730	505.41642	-81.267083	586.6835	304.2029	19456.163	7259.3462	505.41642
	4740	506.38579	-43.777664	550.16345	285.26678	19106.527	7259.3462	506.38579
	4750	505.86013	-53.535849	559.39598	290.05397	19262.785	7259.3462	505.86013
	4760	505.90661	-61.046206	566.95282	293.97229	18812.223	7259.3462	505.90661
	4770	506.30225	-48.122722	554.42498	287.47644	18545.523	7259.3462	506.30225
	4780	505.46704	-58.761016	564.22805	292.55946	19240.833	7259.3462	505.46704
	4790	506.57084	-43.989921	550.56076	285.47279	19062.942	7259.3462	506.57084
	4800	505.76399	-55.576429	561.34042	291.06219	19047.531	7259.3462	505.76399
	4810	506.35556	-46.492569	552.84813	286.65882	18940.35	7259.3462	506.35556
	4820	505.50804	-70.530074	576.03812	298.68313	19193.929	7259.3462	505.50804
	4830	506.13153	-60.524579	566.65611	293.81844	19249.147	7259.3462	506.13153
	4840	506.42246	-57.829305	564.25176	292.57176	19257.215	7259.3462	506.42246
	4850	505.28498	-78.512663	583.79764	302.70654	19419.063	7259.3462	505.28498
	4860	506.28776	-47.432057	553.71981	287.1108	19321.498	7259.3462	506.28776
	4870	505.84409	-58.587129	564.43122	292.66481	19149.767	7259.3462	505.84409
	4880	506.38929	-50.015577	556.40486	288.50304	19300.972	7259.3462	506.38929
	4890	505.40521	-83.046349	588.45156	305.11966	19022.616	7259.3462	505.40521
	4900	505.46153	-84.013473	589.475	305.65033	18798.594	7259.3462	505.46153
	4910	506.60367	-39.806536	546.41021	283.32068	18971.034	7259.3462	506.60367
	4920	505.85084	-63.930637	569.78148	295.43898	18982.908	7259.3462	505.85084
	4930	506.50825	-47.700844	554.20909	287.3645	19092.997	7259.3462	506.50825
	4940	505.58337	-78.173612	583.75698	302.68546	19047.345	7259.3462	505.58337
	4950	506.0841	-82.142582	588.22668	305.00306	18905.54	7259.3462	506.0841
	4960	506.13265	-66.346724	572.47937	296.83787	18821.922	7259.3462	506.13265
	4970	506.05872	-81.047839	587.10656	304.42226	18976.645	7259.3462	506.05872
	4980	505.96433	-69.913302	575.87763	298.59992	18853.502	7259.3462	505.96433
	4990	505.5216	-91.89044	597.41204	309.76578	18585.299	7259.3462	505.5216
	5000	506.29823	-72.284373	578.58261	300.00248	18261.688	7259.3462	506.29823
	5010	506.23748	-63.975299	570.21277	295.66262	18323.653	7259.3462	506.23748
	5020	506.2062	-73.643505	579.84971	300.65949	18305.619	7259.3462	506.2062
	5030	505.55093	-74.053294	579.60422	300.5322	18444.594	7259.3462	505.55093
	5040	505.85007	-81.641448	587.49152	304.62186	18586.024	7259.3462	505.85007
	5050	506.21521	-56.667214	562.88242	291.86174	18262.101	7259.3462	506.21521
	5060	506.17504	-70.652388	576.82743	299.0924	18029.99	7259.3462	506.17504
	5070	505.73685	-79.076468	584.81331	303.23318	18122.041	7259.3462	505.73685
	5080	505.75525	-66.284033	572.03929	296.60969	18408.487	7259.3462	505.75525
	5090	505.91372	-80.175216	586.08893	303.89461	18938.188	7259.3462	505.91372
	5100	506.3353	-43.854042	550.18934	285.28021	19309.966	7259.3462	506.3353
	5110	505.64443	-74.110787	579.75521	300.61049	19482.72	7259.3462	505.64443
	5120	505.88788	-76.308918	582.1968	301.87649	19887.517	7259.3462	505.88788
	5130	505.7259	-63.949137	569.67504	295.38379	19828.752	7259.3462	505.7259
	5140	506.12796	-85.44817	591.57613	306.73979	20329.026	7259.3462	506.12796
	5150	506.22762	-55.489383	561.71701	291.25745	20197.469	7259.3462	506.22762
	5160	505.51557	-75.789728	581.3053	301.41423	20404.878	7259.3462	505.51557
	5170	506.11483	-82.315773	588.43061	305.10879	20794.42	7259.3462	506.11483
	5180	505.81826	-61.242102	567.06036	294.02805	20551.045	7259.3462	505.81826
	5190	506.33144	-79.96823	586.29967	304.00388	20495.646	7259.3462	506.33144
	5200	505.81876	-70.238395	576.05716	298.693	20110.885	7259.3462	505.81876
	5210	505.76715	-89.096397	594.86355	308.44436	19735.329	7259.3462	505.76715
	5220	505.98145	-93.527704	599.50916	310.85317	19456.758	7259.3462	505.98145
	5230	505.96915	-68.708682	574.67783	297.9778	19091.803	7259.3462	505.96915
	5240	506.10229	-94.263684	600.36597	311.29743	19130.62	7259.3462	506.10229
	5250	505.80512	-66.88736	572.69248	296.94837	19308.922	7259.3462	505.80512
	5260	506.03829	-63.778961	569.81725	295.45753	19261.85	7259.3462	506.03829
	5270	505.97437	-65.119919	571.09429	296.11969	19439.812	7259.3462	505.97437
	5280	506.03595	-58.639439	564.67539	292.79141	19280.052	7259.3462	506.03595
	5290	505.72709	-78.829841	584.55693	303.10024	19525.067	7259.3462	505.72709
	5300	505.84363	-67.903319	573.74695	297.49513	19470.045	7259.3462	505.84363
	5310	505.98904	-55.705639	561.69468	291.24588	19712.736	7259.3462	505.98904
	5320	505.85688	-62.551376	568.40825	294.72695	20075.376	7259.3462	505.85688
	5330	506.27601	-61.57756	567.85357	294.43934	20230.05	7259.3462	506.27601
	5340	505.85683	-69.712643	575.56947	298.44013	20645.122	7259.3462	505.85683
	5350	505.86374	-69.157436	575.02118	298.15583	20429.179	7259.3462	505.86374
	5360	505.64683	-87.203243	592.85007	307.40034	20125.218	7259.3462	505.64683
	5370	506.1439	-64.681935	570.82584	295.9805	20089.813	7259.3462	506.1439
	5380	506.19666	-71.866284	578.06294	299.73303	20069.657	7259.3462	506.19666
	5390	505.53694	-73.131572	578.66852	300.04703	19695.16	7259.3462	505.53694
	5400	505.92085	-61.192211	567.11306	294.05538	19256.792	7259.3462	505.92085
	5410	506.39558	-54.145367	560.54095	290.64765	19181.299	7259.3462	506.39558
	5420	505.67262	-60.261682	565.9343	293.44417	19087.785	7259.3462	505.67262
	5430	505.94694	-70.502065	576.44901	298.89618	18987.063	7259.3462	505.94694
	5440	505.89394	-60.977981	566.87192	293.93034	18972.678	7259.3462	505.89394
	5450	506.45665	-57.29657	563.75322	292.31325	18833.925	7259.3462	506.45665
	5460	505.80603	-79.771192	585.57723	303.62928	18944.703	7259.3462	505.80603
	5470	505.6412	-88.135706	593.77691	307.88092	18840.082	7259.3462	505.6412
	5480	506.12887	-81.374592	587.50346	304.62806	19147.874	7259.3462	506.12887
	5490	505.9402	-70.744635	576.68483	299.01846	19217.553	7259.3462	505.9402
	5500	506.24215	-55.889523	562.13167	291.47246	19167.243	7259.3462	506.24215
	5510	506.1397	-57.43864	563.57834	292.22257	19063.157	7259.3462	506.1397
	5520	506.39558	-52.130776	558.52636	289.60306	19078.653	7259.3462	506.39558
	5530	505.56339	-87.124424	592.68782	307.31621	19306.327	7259.3462	505.56339
	5540	505.94755	-66.637692	572.58525	296.89277	19401.481	7259.3462	505.94755
	5550	505.97465	-60.777751	566.7524	293.86837	19438.51	7259.3462	505.97465
	5560	506.20003	-50.347611	556.54765	288.57707	19579.349	7259.3462	506.20003
	5570	506.21166	-35.239314	541.45098	280.74926	19319.263	7259.3462	506.21166
	5580	506.21936	-61.521972	567.74133	294.38114	19058.47	7259.3462	506.21936
	5590	506.63513	-59.222456	565.85759	293.40439	18991.991	7259.3462	506.63513
	5600	505.42467	-81.63997	587.06464	304.40052	19057.03	7259.3462	505.42467
	5610	505.8275	-82.87244	588.69994	305.24845	19185.348	7259.3462	505.8275
	5620	506.08579	-65.712433	571.79823	296.48469	19154.046	7259.3462	506.08579
	5630	505.91574	-71.392301	577.30804	299.3416	19030.231	7259.3462	505.91574
	5640	506.28668	-63.235026	569.52171	295.30429	18998.261	7259.3462	506.28668
	5650	505.73511	-63.472215	569.20732	295.14128	19280.963	7259.3462	505.73511
	5660	506.57459	-43.396952	549.97154	285.16728	19501.693	7259.3462	506.57459
	5670	506.01588	-61.967186	567.98307	294.50648	19514.11	7259.3462	506.01588
	5680	505.4122	-83.404555	588.81676	305.30902	19897.838	7259.3462	505.4122
	5690	506.33628	-54.860591	561.19687	290.98776	19432.344	7259.3462	506.33628
	5700	505.67685	-85.284488	590.96134	306.42101	19269.55	7259.3462	505.67685
	5710	506.10108	-65.36869	571.46977	296.31438	19525.1	7259.3462	506.10108
	5720	505.85989	-57.26645	563.12634	291.98821	19292.775	7259.3462	505.85989
	5730	506.17632	-52.919885	559.0962	289.89853	19451.867	7259.3462	506.17632
	5740	506.41365	-38.451133	544.86478	282.51936	18781.198	7259.3462	506.41365
	5750	505.01592	-88.760622	593.77654	307.88073	19050.815	7259.3462	505.01592
	5760	506.46233	-46.925175	553.3875	286.9385	19267.801	7259.3462	506.46233
	5770	506.11936	-46.252533	552.3719	286.41189	18934.168	7259.3462	506.11936
	5780	505.69741	-75.229985	580.92739	301.21828	18934.476	7259.3462	505.69741
	5790	506.11524	-49.106675	555.22191	287.88966	18955.232	7259.3462	506.11524
	5800	506.01577	-57.06749	563.08326	291.96587	19216.701	7259.3462	506.01577
	5810	506.54854	-53.744753	560.29329	290.51924	19777.761	7259.3462	506.54854
	5820	505.65304	-62.056954	567.70999	294.36489	19689.124	7259.3462	505.65304
	5830	506.078	-64.127199	570.20519	295.65869	19323.315	7259.3462	506.078
	5840	506.42351	-62.052754	568.47626	294.76221	19732.275	7259.3462	506.42351
	5850	505.53771	-91.110144	596.64786	309.36954	19939.439	7259.3462	505.53771
	5860	505.88146	-88.359358	594.24082	308.12146	20048.866	7259.3462	505.88146
	5870	506.24312	-83.629854	589.87298	305.85668	20054.862	7259.3462	506.24312
	5880	506.25702	-72.049467	578.30649	299.85931	20200.542	7259.3462	506.25702
	5890	505.90957	-81.014706	586.92428	304.32774	20360.687	7259.3462	505.90957
	5900	506.12547	-66.65989	572.78536	296.99653	19935.192	7259.3462	506.12547
	5910	506.66758	-49.150392	555.81797	288.19873	19964.966	7259.3462	506.66758
	5920	505.46406	-89.261867	594.72593	308.373	20086.013	7259.3462	505.46406
	5930	505.76847	-70.393092	576.16156	298.74714	19747.805	7259.3462	505.76847
	5940	506.53622	-59.377641	565.91386	293.43357	19467.101	7259.3462	506.53622
	5950	506.03088	-60.64126	566.67214	293.82675	19616.94	7259.3462	506.03088
	5960	506.00113	-60.570062	566.57119	293.77441	19486.559	7259.3462	506.00113
	5970	505.90516	-65.937382	571.84254	296.50767	19430.293	7259.3462	505.90516
	5980	506.74494	-28.582541	535.32748	277.57414	19142.125	7259.3462	506.74494
	5990	505.75202	-67.083753	572.83577	297.02267	19454.577	7259.3462	505.75202
	6000	505.47237	-70.650652	576.12302	298.72715	19685.925	7259.3462	505.47237
	6010	506.28128	-36.359443	542.64073	281.36616	19947.548	7259.3462	506.28128
	6020	506.2387	-60.578861	566.81756	293.90215	19606.057	7259.3462	506.2387
	6030	505.88431	-57.188116	563.07243	291.96025	18838.226	7259.3462	505.88431
	6040	506.0426	-61.837068	567.87967	294.45287	18821.632	7259.3462	506.0426
	6050	506.40356	-67.666535	574.07009	297.66268	18818.993	7259.3462	506.40356
	6060	506.21501	-59.80226	566.01727	293.48719	18813.393	7259.3462	506.21501
	6070	505.4778	-92.085694	597.56349	309.84431	19287.961	7259.3462	505.4778
	6080	506.15476	-65.977225	572.13198	296.65775	19063.931	7259.3462	506.15476
	6090	506.49492	-49.971067	556.46599	288.53473	19408.276	7259.3462	506.49492
	6100	505.79222	-65.364954	571.15718	296.1523	19836.774	7259.3462	505.79222
	6110	505.76177	-57.431237	563.19301	292.02278	19731.791	7259.3462	505.76177
	6120	506.52511	-43.085546	549.61065	284.98015	19695.526	7259.3462	506.52511
	6130	506.29829	-61.262603	567.56089	294.28758	19547.758	7259.3462	506.29829
	6140	505.55539	-66.408917	571.96431	296.57081	19966.223	7259.3462	505.55539
	6150	506.03239	-52.973326	559.00571	289.85161	19981.948	7259.3462	506.03239
	6160	506.50389	-59.774682	566.27857	293.62268	19593.003	7259.3462	506.50389
	6170	505.98333	-64.598548	570.58188	295.854	19673.072	7259.3462	505.98333
	6180	505.42078	-82.756	588.17678	304.97718	19988.066	7259.3462	505.42078
	6190	506.38994	-62.431645	568.82158	294.94127	19964.136	7259.3462	506.38994
	6200	506.35889	-54.369161	560.72805	290.74466	19864.966	7259.3462	506.35889
	6210	505.695	-79.384898	585.0799	303.37141	20039.18	7259.3462	505.695
	6220	506.05955	-68.501089	574.56064	297.91704	20016.262	7259.3462	506.05955
	6230	506.41706	-50.430895	556.84796	288.73279	19807.834	7259.3462	506.41706
	6240	506.06925	-69.476314	575.54557	298.42774	19799.125	7259.3462	506.06925
	6250	505.22289	-99.932626	605.15552	313.78087	19393.542	7259.3462	505.22289
	6260	506.47204	-64.808593	571.28063	296.21631	19078.478	7259.3462	506.47204
	6270	506.33304	-62.728556	569.0616	295.06572	18998.508	7259.3462	506.33304
	6280	505.98027	-85.763456	591.74372	306.82669	19098.9	7259.3462	505.98027
	6290	505.59201	-95.903486	601.4955	311.88311	19113.368	7259.3462	505.59201
	6300	506.42335	-70.405526	576.82887	299.09315	19020.407	7259.3462	506.42335
	6310	506.25254	-78.886583	585.13912	303.40212	19040.177	7259.3462	506.25254
	6320	505.58124	-80.736266	586.31751	304.01313	19207.086	7259.3462	505.58124
	6330	506.01162	-60.25333	566.26495	293.61562	19405.804	7259.3462	506.01162
	6340	506.27959	-47.280936	553.56052	287.02821	19223.266	7259.3462	506.27959
	6350	505.82248	-56.715762	562.53825	291.68327	19071.553	7259.3462	505.82248
	6360	505.956	-48.670337	554.62633	287.58085	18948.619	7259.3462	505.956
	6370	506.42587	-54.136849	560.56272	290.65894	18757.118	7259.3462	506.42587
	6380	505.78439	-68.64141	574.4258	297.84712	18718.367	7259.3462	505.78439
	6390	505.80386	-69.490416	575.29428	298.29744	18896.684	7259.3462	505.80386
	6400	506.12185	-68.826498	574.94834	298.11807	18918.855	7259.3462	506.12185
	6410	506.65112	-53.726414	560.37753	290.56292	19002.714	7259.3462	506.65112
	6420	505.45517	-86.61679	592.07196	306.99689	19027.93	7259.3462	505.45517
	6430	505.66331	-76.678876	582.34219	301.95187	18913.123	7259.3462	505.66331
	6440	506.90164	-35.185782	542.08742	281.07926	18827.508	7259.3462	506.90164
	6450	506.05035	-73.940904	579.99125	300.73288	19135.906	7259.3462	506.05035
	6460	505.4006	-80.38424	585.78484	303.73693	19207.606	7259.3462	505.4006
	6470	506.03054	-58.086642	564.11718	292.50197	19154.081	7259.3462	506.03054
	6480	506.90009	-54.999227	561.89931	291.35198	19022.383	7259.3462	506.90009
	6490	506.22915	-55.252977	561.48213	291.13567	19012.998	7259.3462	506.22915
	6500	505.23054	-100.69783	605.92837	314.18161	19310.026	7259.3462	505.23054
	6510	506.23161	-71.391607	577.62322	299.50503	19068.057	7259.3462	506.23161
	6520	506.27195	-53.120853	559.39281	290.05232	18925.136	7259.3462	506.27195
	6530	505.90655	-72.222416	578.12897	299.76726	18945.577	7259.3462	505.90655
	6540	505.95433	-47.041113	552.99544	286.73521	18884.788	7259.3462	505.95433
	6550	506.53446	-47.286934	553.8214	287.16348	18835.78	7259.3462	506.53446
	6560	506.10035	-59.375805	565.47616	293.20662	18758.971	7259.3462	506.10035
	6570	505.67013	-74.411192	580.08132	300.77958	18594.599	7259.3462	505.67013
	6580	506.32261	-81.251989	587.5746	304.66494	18791.155	7259.3462	506.32261
	6590	505.99958	-60.491843	566.49142	293.73305	19041.278	7259.3462	505.99958
	6600	505.88471	-62.735256	568.61997	294.83672	19514.422	7259.3462	505.88471
	6610	506.07682	-55.905793	561.98262	291.39517	19572.955	7259.3462	506.07682
	6620	506.69764	-34.082121	540.77976	280.40122	18981.313	7259.3462	506.69764
	6630	506.0455	-64.690492	570.73599	295.93391	19086.012	7259.3462	506.0455
	6640	505.16978	-90.692267	595.86204	308.96209	18790.665	7259.3462	505.16978
	6650	506.63214	-59.769534	566.40168	293.68651	18367.02	7259.3462	506.63214
	6660	506.34401	-64.95348	571.29749	296.22506	18210.831	7259.3462	506.34401
	6670	506.14321	-72.356878	578.50009	299.9597	17967.99	7259.3462	506.14321
	6680	505.47368	-96.998828	602.47251	312.3897	18442.626	7259.3462	505.47368
	6690	506.2445	-72.389545	578.63404	300.02915	18465.053	7259.3462	506.2445
	6700	506.6164	-62.641146	569.25754	295.16732	18712.823	7259.3462	506.6164
	6710	505.19656	-87.86628	593.06284	307.51067	18949.897	7259.3462	505.19656
	6720	506.12549	-57.667806	563.7933	292.33404	18641.999	7259.3462	506.12549
	6730	506.55314	-37.653813	544.20695	282.17826	18647.244	7259.3462	506.55314
	6740	506.17019	-49.229368	555.39956	287.98177	18529.689	7259.3462	506.17019
	6750	505.54721	-71.316256	576.86347	299.11109	18501.369	7259.3462	505.54721
	6760	506.00965	-69.191028	575.20068	298.24891	18453.299	7259.3462	506.00965
	6770	506.28968	-51.538112	557.82779	289.24084	18269.164	7259.3462	506.28968
	6780	505.85053	-59.3358	565.18633	293.05634	18547.544	7259.3462	505.85053
	6790	506.1641	-46.482871	552.64697	286.55452	18716.227	7259.3462	506.1641
	6800	506.39748	-40.08948	546.48696	283.36048	19009.482	7259.3462	506.39748
	6810	505.94643	-63.800984	569.74741	295.42132	19501.087	7259.3462	505.94643
	6820	505.82161	-75.865928	581.68754	301.61243	19570.716	7259.3462	505.82161
	6830	506.0894	-80.844132	586.93353	304.33254	19936.078	7259.3462	506.0894
	6840	505.93412	-82.800615	588.73473	305.26649	20515.718	7259.3462	505.93412
	6850	505.8588	-76.58807	582.44687	302.00615	20728.14	7259.3462	505.8588
	6860	505.9362	-89.541602	595.4778	308.76285	20570.239	7259.3462	505.9362
	6870	506.6985	-54.626764	561.32526	291.05433	20062.432	7259.3462	506.6985
	6880	506.09109	-89.517349	595.60844	308.83059	20544.138	7259.3462	506.09109
	6890	505.44479	-102.12145	607.56624	315.03087	20259.582	7259.3462	505.44479
	6900	505.81593	-90.845676	596.6616	309.37667	19883.805	7259.3462	505.81593
	6910	505.98261	-91.517515	597.50013	309.81146	19806.257	7259.3462	505.98261
	6920	506.46233	-58.892342	565.35467	293.14363	19724.046	7259.3462	506.46233
	6930	505.12559	-93.604853	598.73044	310.44939	19875.471	7259.3462	505.12559
	6940	506.58196	-55.910466	562.49242	291.65952	19365.91	7259.3462	506.58196
	6950	506.12925	-69.924434	576.05368	298.6912	19019.259	7259.3462	506.12925
	6960	505.54713	-94.106366	599.6535	310.92801	19182.159	7259.3462	505.54713
	6970	506.13677	-61.162784	567.29955	294.15207	19297.155	7259.3462	506.13677
	6980	505.68044	-86.628025	592.30846	307.11951	19368.422	7259.3462	505.68044
	6990	506.16829	-64.046325	570.21462	295.66357	19329.091	7259.3462	506.16829
	7000	505.68839	-72.955442	578.64384	300.03423	19311.597	7259.3462	505.68839
	7010	506.13572	-69.864499	576.00022	298.66348	19279.742	7259.3462	506.13572
	7020	505.96956	-61.570416	567.53998	294.27674	19635.977	7259.3462	505.96956
	7030	505.59926	-73.612585	579.21184	300.32875	19683.058	7259.3462	505.59926
	7040	506.27791	-48.787062	555.06497	287.80828	19515.44	7259.3462	506.27791
	7050	506.44038	-52.163179	558.60356	289.64309	19065.027	7259.3462	506.44038
	7060	505.50101	-89.200032	594.70104	308.3601	19167.098	7259.3462	505.50101
	7070	505.23018	-96.814427	602.04461	312.16783	19300.293	7259.3462	505.23018
	7080	506.347	-69.248844	575.59585	298.45381	19071.398	7259.3462	506.347
	7090	506.20284	-68.307526	574.51037	297.89097	19056.117	7259.3462	506.20284
	7100	505.82749	-83.607498	589.43499	305.62958	19539.358	7259.3462	505.82749
	7110	505.30966	-88.848255	594.15792	308.07848	19874.537	7259.3462	505.30966
	7120	506.08975	-77.197787	583.28753	302.44205	19909.294	7259.3462	506.08975
	7130	506.35743	-70.744038	577.10147	299.23449	19988.321	7259.3462	506.35743
	7140	505.05017	-101.32902	606.3792	314.41537	20236.364	7259.3462	505.05017
	7150	505.97462	-77.80391	583.77853	302.69663	20106.897	7259.3462	505.97462
	7160	506.35228	-67.886245	574.23853	297.75002	20005.12	7259.3462	506.35228
	7170	505.54573	-99.484048	605.02978	313.71568	19806.222	7259.3462	505.54573
	7180	506.2143	-85.914902	592.1292	307.02656	19475.971	7259.3462	506.2143
	7190	505.57165	-105.6793	611.25095	316.94144	19572.028	7259.3462	505.57165
	7200	506.01233	-103.41496	609.42729	315.99584	19491.008	7259.3462	506.01233
	7210	506.00665	-82.822129	588.82878	305.31525	19526.811	7259.3462	506.00665
	7220	505.84426	-91.74953	597.59379	309.86002	19554.909	7259.3462	505.84426
	7230	506.22135	-85.086723	591.30807	306.6008	19275.885	7259.3462	506.22135
	7240	505.72246	-79.750831	585.47329	303.57539	19448.404	7259.3462	505.72246
	7250	505.85777	-80.9748	586.83257	304.28019	19279.704	7259.3462	505.85777
	7260	506.35129	-63.521881	569.87317	295.48653	19084.549	7259.3462	506.35129
	7270	505.76804	-80.359134	586.12718	303.91444	19140.36	7259.3462	505.76804
	7280	505.56513	-82.845636	588.41077	305.09851	19242.45	7259.3462	505.56513
	7290	506.0424	-59.215332	565.25773	293.09336	19154.218	7259.3462	506.0424
	7300	505.90846	-70.294797	576.20325	298.76876	19209.257	7259.3462	505.90846
	7310	506.24744	-61.86247	568.10991	294.57225	19167.239	7259.3462	506.24744
	7320	505.44248	-85.253564	590.69605	306.28345	19355.117	7259.3462	505.44248
	7330	505.9336	-71.459413	577.39302	299.38566	19518.883	7259.3462	505.9336
	7340	506.1691	-60.263389	566.43249	293.70249	19702.412	7259.3462	506.1691
	7350	505.89191	-65.488232	571.38015	296.26791	19624.796	7259.3462	505.89191
	7360	505.96314	-66.50776	572.4709	296.83348	19276.096	7259.3462	505.96314
	7370	505.72769	-72.363299	578.09098	299.74757	19004.44	7259.3462	505.72769
	7380	506.15129	-61.074676	567.22596	294.11392	18976.357	7259.3462	506.15129
	7390	505.77466	-79.217634	584.9923	303.32599	19294.099	7259.3462	505.77466
	7400	505.73679	-71.591194	577.32799	299.35194	18945.735	7259.3462	505.73679
	7410	506.43638	-63.502304	569.93868	295.52049	19167.906	7259.3462	506.43638
	7420	505.62402	-73.917083	579.5411	300.49947	19523.415	7259.3462	505.62402
	7430	506.25634	-63.087852	569.34419	295.21225	20050.062	7259.3462	506.25634
	7440	505.72474	-90.498615	596.22336	309.14944	20194.433	7259.3462	505.72474
	7450	505.99417	-77.964577	583.95875	302.79008	20356.978	7259.3462	505.99417
	7460	506.0867	-82.298256	588.38496	305.08513	20811.119	7259.3462	506.0867
	7470	505.52984	-98.79652	604.32636	313.35095	21084.36	7259.3462	505.52984
	7480	506.41201	-80.716481	587.12849	304.43363	20716.228	7259.3462	506.41201
	7490	505.68471	-103.29126	608.97597	315.76183	20748.653	7259.3462	505.68471
	7500	506.02232	-81.234896	587.25722	304.50038	20391.848	7259.3462	506.02232
	7510	505.82715	-88.588655	594.4158	308.2122	20425.9	7259.3462	505.82715
	7520	506.09636	-88.3776	594.47396	308.24235	20419.317	7259.3462	506.09636
	7530	505.44183	-81.208227	586.65006	304.18556	20746.455	7259.3462	505.44183
	7540	505.80966	-99.607965	605.41763	313.91678	20835.836	7259.3462	505.80966
	7550	506.31455	-55.230218	561.54477	291.16814	20366.715	7259.3462	506.31455
	7560	505.35497	-90.998076	596.35305	309.21668	20367.407	7259.3462	505.35497
	7570	506.15119	-71.756394	577.90759	299.65247	20065.996	7259.3462	506.15119
	7580	505.97726	-59.141015	565.11828	293.02105	19876.032	7259.3462	505.97726
	7590	506.08634	-82.865741	588.95208	305.37919	19952.019	7259.3462	506.08634
	7600	505.70489	-82.3168	588.02169	304.89676	19772.389	7259.3462	505.70489
	7610	505.43353	-92.348323	597.78185	309.95754	19650.137	7259.3462	505.43353
	7620	506.3858	-67.792973	574.17877	297.71904	19418.312	7259.3462	506.3858
	7630	506.15464	-45.458043	551.61268	286.01823	19037.636	7259.3462	506.15464
	7640	506.01643	-77.705173	583.7216	302.66712	19164.445	7259.3462	506.01643
	7650	505.84672	-81.624907	587.47162	304.61155	19213.034	7259.3462	505.84672
	7660	505.86156	-73.779684	579.64124	300.5514	18914.627	7259.3462	505.86156
	7670	506.13571	-68.852154	574.98786	298.13856	19078.177	7259.3462	506.13571
	7680	506.05416	-58.658116	564.71228	292.81054	18976.71	7259.3462	506.05416
	7690	505.9111	-67.49645	573.40755	297.31915	19087.733	7259.3462	505.9111
	7700	505.72987	-74.680064	580.40994	300.94998	19376.836	7259.3462	505.72987
	7710	506.20967	-75.16805	581.37772	301.45178	19705.792	7259.3462	506.20967
	7720	505.9096	-71.175562	577.08516	299.22604	20156.872	7259.3462	505.9096
	7730	506.03289	-73.719545	579.75244	300.60905	20323.888	7259.3462	506.03289
	7740	506.1787	-61.480502	567.6592	294.33856	20743.508	7259.3462	506.1787
	7750	506.24473	-46.253729	552.49846	286.47752	21261.457	7259.3462	506.24473
	7760	506.11983	-62.975695	569.09552	295.08331	21191.195	7259.3462	506.11983
	7770	505.74071	-77.989978	583.73068	302.67182	20495.679	7259.3462	505.74071
	7780	505.81268	-84.946396	590.75908	306.31614	19904.111	7259.3462	505.81268
	7790	506.18557	-61.697545	567.88312	294.45466	19469.887	7259.3462	506.18557
	7800	506.36332	-53.229419	559.59274	290.15599	19327.296	7259.3462	506.36332
	7810	505.80939	-65.627504	571.43689	296.29734	18889.234	7259.3462	505.80939
	7820	506.2224	-58.061252	564.28365	292.58829	18493.741	7259.3462	506.2224
	7830	505.62798	-90.357395	595.98537	309.02604	18605.944	7259.3462	505.62798
	7840	506.17347	-64.697386	570.87086	296.00384	18597.507	7259.3462	506.17347
	7850	505.81626	-62.925444	568.7417	294.89984	18843.412	7259.3462	505.81626
	7860	505.88402	-66.398546	572.28256	296.73583	18763.159	7259.3462	505.88402
	7870	506.36427	-43.844954	550.20922	285.29052	18550.559	7259.3462	506.36427
	7880	505.83673	-66.464109	572.30084	296.7453	18564.546	7259.3462	505.83673
	7890	506.17924	-51.426461	557.60571	289.12569	18490.945	7259.3462	506.17924
	7900	505.75263	-69.730512	575.48314	298.39537	18411.783	7259.3462	505.75263
	7910	505.77518	-79.945395	585.72058	303.70361	18296.414	7259.3462	505.77518
	7920	506.16893	-56.000372	562.1693	291.49197	18388.581	7259.3462	506.16893
	7930	505.87519	-71.30125	577.17644	299.27337	18860.144	7259.3462	505.87519
	7940	505.62394	-63.232493	568.85643	294.95933	18886.4	7259.3462	505.62394
	7950	506.20547	-50.907988	557.11346	288.87045	18938.452	7259.3462	506.20547
	7960	505.95054	-65.178503	571.12904	296.13771	19223.745	7259.3462	505.95054
	7970	506.10391	-63.178744	569.28265	295.18034	18928.642	7259.3462	506.10391
	7980	505.80183	-97.417869	603.2197	312.77713	19331.171	7259.3462	505.80183
	7990	505.6647	-86.90275	592.56745	307.2538	19015.603	7259.3462	505.6647
	8000	506.16592	-91.459277	597.6252	309.87631	19317.949	7259.3462	506.16592
	8010	505.7699	-86.963092	592.733	307.33964	19771.813	7259.3462	505.7699
	8020	506.06588	-72.351345	578.41723	299.91673	19691.22	7259.3462	506.06588
	8030	505.99734	-84.540547	590.53789	306.20145	19951.274	7259.3462	505.99734
	8040	505.73606	-66.021028	571.75709	296.46336	20010.281	7259.3462	505.73606
	8050	506.32134	-75.717235	582.03857	301.79444	20175.521	7259.3462	506.32134
	8060	506.27247	-69.115063	575.38753	298.34579	19928.832	7259.3462	506.27247
	8070	505.41371	-91.476029	596.88974	309.49496	19935.675	7259.3462	505.41371
	8080	505.72031	-97.106707	602.82702	312.57352	20410.797	7259.3462	505.72031
	8090	506.15418	-62.69193	568.84611	294.95398	20529.269	7259.3462	506.15418
	8100	506.16849	-88.54328	594.71177	308.36566	20620.149	7259.3462	506.16849
	8110	505.74419	-86.668546	592.41274	307.17358	20912.381	7259.3462	505.74419
	8120	505.92795	-84.774425	590.70238	306.28674	20884.159	7259.3462	505.92795
	8130	506.3527	-79.34029	585.69299	303.68931	20769.619	7259.3462	506.3527
	8140	506.02501	-65.372107	571.39712	296.27671	20536.463	7259.3462	506.02501
	8150	505.74485	-104.64711	610.39195	316.49603	20000.65	7259.3462	505.74485
	8160	505.6153	-90.594367	596.20967	309.14234	19803.571	7259.3462	505.6153
	8170	506.41055	-74.117145	580.52769	301.01103	19322.534	7259.3462	506.41055
	8180	505.72177	-82.820583	588.54236	305.16674	18927.906	7259.3462	505.72177
	8190	506.12371	-63.705529	569.82924	295.46375	18514.186	7259.3462	506.12371
	8200	506.38015	-61.426059	567.80621	294.41478	18254.779	7259.3462	506.38015
	8210	505.53663	-71.126575	576.66321	299.00725	18491.551	7259.3462	505.53663
	8220	506.07942	-67.535708	573.61513	297.42678	18685.915	7259.3462	506.07942
	8230	505.59758	-74.615311	580.21289	300.8478	18620.285	7259.3462	505.59758
	8240	506.27246	-63.112141	569.3846	295.2332	18737.153	7259.3462	506.27246
	8250	505.80797	-74.816136	580.62411	301.06103	18897.463	7259.3462	505.80797
	8260	505.68665	-97.512332	603.19898	312.76639	19073.124	7259.3462	505.68665
	8270	506.31805	-75.083968	581.40201	301.46438	19462.744	7259.3462	506.31805
	8280	506.14645	-72.300176	578.44663	299.93198	19663.437	7259.3462	506.14645
	8290	505.98564	-80.003414	585.98905	303.84282	20129.669	7259.3462	505.98564
	8300	505.94614	-75.75913	581.70527	301.62162	19956.338	7259.3462	505.94614
	8310	506.16196	-74.00223	580.16419	300.82255	19725.833	7259.3462	506.16196
	8320	505.72001	-84.815201	590.53521	306.20006	19953.995	7259.3462	505.72001
	8330	506.16894	-64.935637	571.10458	296.12503	19655.568	7259.3462	506.16894
	8340	505.72115	-92.791694	598.51285	310.33657	19695.128	7259.3462	505.72115
	8350	506.47495	-60.486785	566.96174	293.97691	19498.819	7259.3462	506.47495
	8360	505.88201	-77.508396	583.39041	302.49539	20053.519	7259.3462	505.88201
	8370	505.85781	-93.493565	599.35138	310.77135	20461.23	7259.3462	505.85781
	8380	506.46291	-66.479507	572.94241	297.07797	20633.13	7259.3462	506.46291
	8390	505.74462	-96.070938	601.81556	312.04906	20647.455	7259.3462	505.74462
	8400	505.76409	-99.821866	605.58595	314.00406	20374.382	7259.3462	505.76409
	8410	506.00622	-92.600727	598.60694	310.38536	20157.931	7259.3462	506.00622
	8420	506.21732	-86.521433	592.73876	307.34263	20044.471	7259.3462	506.21732
	8430	506.02698	-77.411822	583.43881	302.52048	19926.53	7259.3462	506.02698
	8440	505.69825	-77.986166	583.68442	302.64784	19790.978	7259.3462	505.69825
	8450	506.43299	-62.750112	569.1831	295.12872	19845.034	7259.3462	506.43299
	8460	506.13278	-61.656267	567.78904	294.40588	19628.473	7259.3462	506.13278
	8470	505.56708	-82.666958	588.23404	305.00687	19588.12	7259.3462	505.56708
	8480	505.87216	-80.250405	586.12256	303.91204	19374.11	7259.3462	505.87216
	8490	506.09588	-74.157505	580.25338	300.8688	19564.289	7259.3462	506.09588
	8500	505.94626	-62.778474	568.72473	294.89105	19681.228	7259.3462	505.94626
	8510	506.03528	-68.036901	574.07218	297.66377	19957.012	7259.3462	506.03528
	8520	506.31436	-69.159524	575.47388	298.39057	19734.098	7259.3462	506.31436
	8530	505.84153	-97.927964	603.7695	313.06221	19573.849	7259.3462	505.84153
	8540	505.80782	-102.08099	607.88882	315.19813	19556.285	7259.3462	505.80782
	8550	505.93166	-95.802566	601.73423	312.00689	20092.547	7259.3462	505.93166
	8560	506.06814	-85.097174	591.16531	306.52678	20241.389	7259.3462	506.06814
	8570	506.31375	-56.718023	563.03178	291.93918	20239.384	7259.3462	506.31375
	8580	505.71431	-83.8702	589.58451	305.70711	20266.64	7259.3462	505.71431
	8590	506.40431	-76.210226	582.61454	302.09309	19975.882	7259.3462	506.40431
	8600	505.91643	-80.828851	586.74528	304.23493	20229.485	7259.3462	505.91643
	8610	506.06013	-85.091534	591.15166	306.5197	20075.891	7259.3462	506.06013
	8620	506.3664	-60.032541	566.39894	293.68509	20104.965	7259.3462	506.3664
	8630	506.07735	-74.118223	580.19557	300.83882	20335.616	7259.3462	506.07735
	8640	506.19523	-90.419727	596.61496	309.35248	20408.187	7259.3462	506.19523
	8650	505.26757	-101.56283	606.83041	314.64933	20288.078	7259.3462	505.26757
	8660	506.38042	-82.047488	588.42791	305.10739	20199.161	7259.3462	506.38042
	8670	506.22952	-64.258622	570.48815	295.8054	19940.047	7259.3462	506.22952
	8680	506.02944	-62.703757	568.7332	294.89544	19796.281	7259.3462	506.02944
	8690	505.67696	-95.74758	601.42454	311.84632	19613.322	7259.3462	505.67696
	8700	506.38858	-64.568209	570.95679	296.0484	19587.824	7259.3462	506.38858
	8710	506.03027	-82.330976	588.36125	305.07283	19716.299	7259.3462	506.03027
	8720	505.36623	-99.072997	604.43923	313.40947	19803.46	7259.3462	505.36623
	8730	505.82987	-78.020683	583.85055	302.73398	19805.854	7259.3462	505.82987
	8740	506.18054	-75.416249	581.59679	301.56537	19809.658	7259.3462	506.18054
	8750	506.40789	-54.456494	560.86438	290.81535	19556.441	7259.3462	506.40789
	8760	506.11693	-64.492177	570.6091	295.86812	19930.157	7259.3462	506.11693
	8770	506.14168	-61.463344	567.60502	294.31046	19959.055	7259.3462	506.14168
	8780	505.97009	-71.80859	577.77868	299.58564	19757.368	7259.3462	505.97009
	8790	505.64801	-94.149911	599.79792	311.00289	20057.217	7259.3462	505.64801
	8800	505.9877	-81.016937	587.00464	304.36941	20516.873	7259.3462	505.9877
	8810	506.06852	-71.393667	577.46219	299.42153	20667.298	7259.3462	506.06852
	8820	506.0554	-66.998097	573.0535	297.13557	20231.318	7259.3462	506.0554
	8830	506.25013	-67.184761	573.43489	297.33332	19655.74	7259.3462	506.25013
	8840	506.46424	-61.336677	567.80091	294.41204	19544.663	7259.3462	506.46424
	8850	505.67147	-90.852282	596.52375	309.3052	19558.196	7259.3462	505.67147
	8860	505.77631	-80.559915	586.33623	304.02283	19694.588	7259.3462	505.77631
	8870	505.81317	-69.306954	575.12012	298.20714	19320.655	7259.3462	505.81317
	8880	506.45429	-67.578846	574.03313	297.64352	19106.754	7259.3462	506.45429
	8890	506.02175	-65.737628	571.75938	296.46455	19193.134	7259.3462	506.02175
	8900	505.80159	-75.014098	580.81569	301.16036	19597.541	7259.3462	505.80159
	8910	506.3554	-66.88545	573.24085	297.23271	19597.651	7259.3462	506.3554
	8920	505.69036	-73.235796	578.92616	300.18062	18988.091	7259.3462	505.69036
	8930	506.07201	-86.185139	592.25715	307.09291	18968.301	7259.3462	506.07201
	8940	505.92962	-64.960165	570.88979	296.01365	19172.441	7259.3462	505.92962
	8950	506.35721	-55.038838	561.39604	291.09103	19215.506	7259.3462	506.35721
	8960	506.26664	-77.564819	583.83146	302.72408	19192.039	7259.3462	506.26664
	8970	505.33841	-93.973747	599.31216	310.75102	18996.799	7259.3462	505.33841
	8980	506.23973	-85.71052	591.95025	306.93378	18850.857	7259.3462	506.23973
	8990	506.01797	-83.855235	589.8732	305.8568	19140.756	7259.3462	506.01797
	9000	506.10496	-72.372913	578.47787	299.94817	19401.783	7259.3462	506.10496
	9010	506.39805	-76.354979	582.75303	302.1649	19285.914	7259.3462	506.39805
	9020	505.53668	-102.87128	608.40796	315.46731	19451.911	7259.3462	505.53668
	9030	506.27883	-85.113535	591.39237	306.64451	19468.733	7259.3462	506.27883
	9040	505.55946	-105.37264	610.9321	316.77611	19934.881	7259.3462	505.55946
	9050	506.28445	-62.281581	568.56603	294.80876	19953.184	7259.3462	506.28445
	9060	506.12636	-66.932277	573.05864	297.13823	19999.575	7259.3462	506.12636
	9070	505.83718	-78.716575	584.55376	303.0986	20130.489	7259.3462	505.83718
	9080	506.46883	-38.79665	545.26548	282.72713	20017.706	7259.3462	506.46883
	9090	505.77236	-76.076161	581.84852	301.6959	20482.689	7259.3462	505.77236
	9100	506.01112	-72.61722	578.62834	300.02619	19915.775	7259.3462	506.01112
	9110	505.86256	-61.106805	566.96936	293.98086	19875.5	7259.3462	505.86256
	9120	505.8632	-70.43774	576.30094	298.81941	20000.068	7259.3462	505.8632
	9130	506.27586	-48.955316	555.23117	287.89446	19570.821	7259.3462	506.27586
	9140	506.09313	-55.659461	561.75259	291.2759	19720.576	7259.3462	506.09313
	9150	505.81253	-67.277184	573.08972	297.15435	19615.236	7259.3462	505.81253
	9160	506.23558	-50.330709	556.56629	288.58674	19452.669	7259.3462	506.23558
	9170	505.70213	-84.261248	589.96338	305.90356	19409.04	7259.3462	505.70213
	9180	505.98507	-70.268803	576.25387	298.795	19197.195	7259.3462	505.98507
	9190	506.35454	-66.836231	573.19077	297.20675	19151.59	7259.3462	506.35454
	9200	505.59869	-85.2729	590.87159	306.37448	19636.191	7259.3462	505.59869
	9210	506.2883	-67.48484	573.77314	297.50871	20025.212	7259.3462	506.2883
	9220	505.62965	-85.861722	591.49137	306.69584	20193.19	7259.3462	505.62965
	9230	506.10776	-66.48841	572.59617	296.89844	20083.314	7259.3462	506.10776
	9240	505.84722	-70.145946	575.99317	298.65982	20089.98	7259.3462	505.84722
	9250	506.35189	-58.960956	565.31285	293.12194	19794.881	7259.3462	506.35189
	9260	506.26335	-59.654035	565.91738	293.4354	19448.443	7259.3462	506.26335
	9270	505.66912	-85.482033	591.15116	306.51943	19305.327	7259.3462	505.66912
	9280	505.54786	-76.865728	582.41359	301.98889	19552.446	7259.3462	505.54786
	9290	506.27505	-49.556261	555.83131	288.20564	19624.269	7259.3462	506.27505
	9300	506.35056	-53.788308	560.13887	290.43917	19330.597	7259.3462	506.35056
	9310	505.95176	-55.241186	561.19295	290.98572	19333.314	7259.3462	505.95176
	9320	505.74063	-76.329027	582.06966	301.81056	19320.305	7259.3462	505.74063
	9330	505.97325	-70.488945	576.46219	298.90302	19178.099	7259.3462	505.97325
	9340	506.12728	-71.286496	577.41377	299.39643	19105.152	7259.3462	506.12728
	9350	505.86199	-78.049678	583.91167	302.76567	19113.146	7259.3462	505.86199
	9360	505.90031	-65.479837	571.38015	296.26792	19086.656	7259.3462	505.90031
	9370	506.0033	-60.990978	566.99427	293.99378	19261.043	7259.3462	506.0033
	9380	506.71392	-48.580207	555.29413	287.92711	19422.435	7259.3462	506.71392
	9390	505.69545	-72.812133	578.50759	299.96358	19774.046	7259.3462	505.69545
	9400	505.746	-79.660898	585.4069	303.54096	19746.62	7259.3462	505.746
	9410	506.12058	-56.798589	562.91917	291.88079	19413.431	7259.3462	506.12058
	9420	505.6668	-75.615928	581.28273	301.40253	19338.535	7259.3462	505.6668
	9430	506.50353	-51.833993	558.33752	289.50515	19345.158	7259.3462	506.50353
	9440	505.85621	-69.197659	575.05387	298.17278	19284.523	7259.3462	505.85621
	9450	505.89087	-82.178217	588.06909	304.92134	19037.221	7259.3462	505.89087
	9460	505.94854	-76.824559	582.7731	302.17531	18803.698	7259.3462	505.94854
	9470	505.92788	-92.890296	598.81817	310.49488	18977.293	7259.3462	505.92788
	9480	506.06159	-87.879947	593.94153	307.96628	18828.388	7259.3462	506.06159
	9490	506.0166	-80.493352	586.50995	304.11291	18845.471	7259.3462	506.0166
	9500	505.57404	-99.868822	605.44286	313.92987	19078.412	7259.3462	505.57404
	9510	506.50306	-71.594234	578.09729	299.75084	18820.557	7259.3462	506.50306
	9520	505.81067	-86.295651	592.10632	307.0147	18931.807	7259.3462	505.81067
	9530	505.67715	-97.440212	603.11737	312.72407	18854.076	7259.3462	505.67715
	9540	506.23324	-77.785	584.01824	302.82093	18990.418	7259.3462	506.23324
	9550	505.81447	-81.491703	587.30617	304.52576	19208.448	7259.3462	505.81447
	9560	506.20985	-71.386437	577.59629	299.49106	19126.294	7259.3462	506.20985
	9570	506.01388	-74.826334	580.84021	301.17308	19453.642	7259.3462	506.01388
	9580	505.78311	-92.789501	598.57261	310.36755	20036.715	7259.3462	505.78311
	9590	506.36077	-77.692152	584.05292	302.83891	20140.166	7259.3462	506.36077
	9600	505.53233	-88.507734	594.04006	308.01737	20323.157	7259.3462	505.53233
	9610	506.11781	-80.081215	586.19902	303.95169	20216.92	7259.3462	506.11781
	9620	506.20391	-57.810854	564.01477	292.44887	20196.405	7259.3462	506.20391
	9630	506.02801	-66.513106	572.54111	296.86989	20328.912	7259.3462	506.02801
	9640	505.86607	-72.92721	578.79328	300.11172	20632.664	7259.3462	505.86607
	9650	505.428	-82.18081	587.60881	304.68268	20591.413	7259.3462	505.428
	9660	506.24276	-67.129247	573.372	297.30072	20033.893	7259.3462	506.24276
	9670	506.20124	-66.978618	573.17986	297.20109	19969.931	7259.3462	506.20124
	9680	505.7786	-83.463098	589.2417	305.52935	19856.298	7259.3462	505.7786
	9690	505.96381	-71.668356	577.63216	299.50966	19349.688	7259.3462	505.96381
	9700	506.16574	-76.785578	582.95131	302.26771	19312.182	7259.3462	506.16574
	9710	505.95912	-76.043511	582.00264	301.77581	18842.826	7259.3462	505.95912
	9720	505.89855	-75.533971	581.43253	301.4802	18878.681	7259.3462	505.89855
	9730	505.8694	-90.031233	595.90063	308.9821	19238.589	7259.3462	505.8694
	9740	506.01421	-62.212972	568.22718	294.63306	18933.892	7259.3462	506.01421
	9750	506.31598	-62.739799	569.05578	295.0627	19359.385	7259.3462	506.31598
	9760	505.93407	-65.01869	570.95276	296.04631	19632.486	7259.3462	505.93407
	9770	506.05092	-50.490164	556.54108	288.57367	19578.883	7259.3462	506.05092
	9780	505.64911	-86.767719	592.41682	307.1757	19615.77	7259.3462	505.64911
	9790	505.93761	-59.894103	565.83171	293.39098	19395.98	7259.3462	505.93761
	9800	506.21494	-66.95517	573.17011	297.19603	19546.333	7259.3462	506.21494
	9810	505.82142	-84.655252	590.47667	306.16971	19603.931	7259.3462	505.82142
	9820	505.90916	-65.227092	571.13625	296.14145	19770.27	7259.3462	505.90916
	9830	505.8794	-88.836215	594.71561	308.36765	20406.769	7259.3462	505.8794
	9840	506.32307	-70.775931	577.099	299.23321	20352.354	7259.3462	506.32307
	9850	505.88005	-81.802704	587.68275	304.72102	20517.46	7259.3462	505.88005
	9860	505.7043	-82.127102	587.83141	304.7981	20857.177	7259.3462	505.7043
	9870	506.10471	-66.541795	572.64651	296.92454	20781.943	7259.3462	506.10471
	9880	506.09821	-81.906693	588.00491	304.88806	20886.821	7259.3462	506.09821
	9890	505.83425	-70.675443	576.50969	298.92765	20936.057	7259.3462	505.83425
	9900	505.92699	-84.796638	590.72363	306.29775	20781.772	7259.3462	505.92699
	9910	506.07978	-87.129657	593.20944	307.58668	20487.462	7259.3462	506.07978
	9920	506.02829	-70.379617	576.40791	298.87487	20615.049	7259.3462	506.02829
	9930	505.79397	-87.964229	593.7582	307.87122	20623.711	7259.3462	505.79397
	9940	506.08964	-63.576981	569.66662	295.37943	20025.818	7259.3462	506.08964
	9950	506.21911	-61.363251	567.58236	294.29871	19695.379	7259.3462	506.21911
	9960	505.75841	-68.27616	574.03457	297.64426	19459.25	7259.3462	505.75841
	9970	505.9325	-61.784137	567.71664	294.36834	19557.301	7259.3462	505.9325
	9980	506.34208	-56.106213	562.44829	291.63663	19519.526	7259.3462	506.34208
	9990	505.88224	-67.025662	572.90791	297.06008	19509.983	7259.3462	505.88224
	10000	505.66187	-86.22087	591.88274	306.89877	19493.505	7259.3462	505.66187
	10010	506.10039	-69.478085	575.57847	298.4448	19139.719	7259.3462	506.10039
	10020	506.33244	-66.614308	572.94675	297.08022	19082.177	7259.3462	506.33244
	10030	506.01731	-74.551753	580.56907	301.03249	19152.352	7259.3462	506.01731
	10040	505.70465	-77.161513	582.86616	302.22356	19252.61	7259.3462	505.70465
	10050	505.89019	-79.574274	585.46446	303.57081	19355.818	7259.3462	505.89019
	10060	506.3665	-63.994971	570.36147	295.73972	19514.571	7259.3462	506.3665
	10070	505.613	-85.054486	590.66748	306.26864	19528.017	7259.3462	505.613
	10080	506.07379	-69.280403	575.35419	298.32851	19532.707	7259.3462	506.07379
	10090	506.35718	-66.438587	572.79577	297.00193	19573.415	7259.3462	506.35718
	10100	505.88588	-84.126373	590.01225	305.9289	19976.858	7259.3462	505.88588
	10110	505.83368	-91.513987	597.34767	309.7324	20096.57	7259.3462	505.83368
	10120	505.89498	-91.505885	597.40086	309.75999	20338.129	7259.3462	505.89498
	10130	505.89345	-93.183708	599.07715	310.62917	20824.066	7259.3462	505.89345
	10140	506.22206	-70.88836	577.11042	299.23913	20932.956	7259.3462	506.22206
	10150	506.03085	-68.047836	574.07869	297.66714	21067.611	7259.3462	506.03085
	10160	506.41083	-60.876895	567.28773	294.14594	21039.621	7259.3462	506.41083
	10170	505.88294	-71.674312	577.55725	299.47082	21043.309	7259.3462	505.88294
	10180	505.84729	-85.518737	591.36603	306.63085	20715.368	7259.3462	505.84729
	10190	506.03446	-81.568025	587.60248	304.6794	20232.058	7259.3462	506.03446
	10200	506.10749	-75.073675	581.18116	301.34987	19872.22	7259.3462	506.10749
	10210	505.76428	-84.72261	590.48689	306.17501	19775.629	7259.3462	505.76428
	10220	506.30207	-68.750693	575.05276	298.17221	19241.047	7259.3462	506.30207
	10230	506.30655	-72.873078	579.17963	300.31204	19331.7	7259.3462	506.30655
	10240	505.70039	-98.319339	604.01973	313.19196	19685.833	7259.3462	505.70039
	10250	505.90824	-84.296774	590.20501	306.02885	19616.725	7259.3462	505.90824
	10260	505.78957	-94.498935	600.28851	311.25727	19275.844	7259.3462	505.78957
	10270	506.49229	-69.537511	576.0298	298.67882	19228.793	7259.3462	506.49229
	10280	505.80763	-71.029486	576.83712	299.09742	19566.247	7259.3462	505.80763
	10290	505.79778	-80.691128	586.48891	304.102	19901.381	7259.3462	505.79778
	10300	506.42257	-58.670236	565.09281	293.00785	19701.782	7259.3462	506.42257
	10310	506.08945	-69.142336	575.23179	298.26504	19968.226	7259.3462	506.08945
	10320	505.68117	-84.24037	589.92154	305.88186	20359.124	7259.3462	505.68117
	10330	506.08146	-53.882829	559.96429	290.34865	20179.402	7259.3462	506.08146
	10340	506.4469	-45.734513	552.18142	286.31313	20447.795	7259.3462	506.4469
	10350	506.09366	-53.716726	559.81039	290.26885	20200.632	7259.3462	506.09366
	10360	505.74967	-62.024421	567.77409	294.39813	20070.729	7259.3462	505.74967
	10370	505.6514	-79.658017	585.30942	303.49042	20123.619	7259.3462	505.6514
	10380	506.50588	-48.024528	554.53041	287.53111	19874.775	7259.3462	506.50588
	10390	505.94963	-67.850069	573.7997	297.52248	19713.783	7259.3462	505.94963
	10400	505.8982	-68.270154	574.16836	297.71364	19742.541	7259.3462	505.8982
	10410	506.19072	-44.364723	550.55544	285.47004	19787.124	7259.3462	506.19072
	10420	506.37926	-65.830514	572.20977	296.69808	19559.484	7259.3462	506.37926
	10430	505.8475	-72.422732	578.27024	299.84051	19218.543	7259.3462	505.8475
	10440	505.40064	-87.794181	593.19482	307.5791	18877.408	7259.3462	505.40064
	10450	506.41587	-77.659711	584.07558	302.85066	18611.177	7259.3462	506.41587
	10460	506.16419	-53.375034	559.53923	290.12825	18357.076	7259.3462	506.16419
	10470	505.95249	-63.727801	569.68029	295.38652	18745.636	7259.3462	505.95249
	10480	506.05304	-66.870263	572.9233	297.06806	18767.683	7259.3462	506.05304
	10490	506.2882	-49.079424	555.36763	287.96522	18673.051	7259.3462	506.2882
	10500	505.65269	-88.45576	594.10845	308.05283	18610.609	7259.3462	505.65269
	10510	505.73082	-83.180931	588.91175	305.35827	18231.645	7259.3462	505.73082
	10520	505.83065	-75.898892	581.72954	301.63421	18611.729	7259.3462	505.83065
	10530	506.56911	-61.152324	567.72144	294.37083	18548.351	7259.3462	506.56911
	10540	505.8052	-56.086613	561.89182	291.34809	18848.16	7259.3462	505.8052
	10550	505.99828	-58.343975	564.34225	292.61868	18966.682	7259.3462	505.99828
	10560	506.4992	-42.508397	549.00759	284.66746	18989.75	7259.3462	506.4992
	10570	505.9088	-60.04933	565.95813	293.45653	19115.509	7259.3462	505.9088
	10580	505.83604	-69.234467	575.0705	298.18141	18906.124	7259.3462	505.83604
	10590	505.91406	-57.263733	563.17779	292.01489	18744.839	7259.3462	505.91406
	10600	506.18528	-51.179482	557.36476	289.00076	18674.025	7259.3462	506.18528
	10610	506.41172	-52.426354	558.83807	289.76469	18828.504	7259.3462	506.41172
	10620	505.61053	-70.236554	575.84708	298.58408	19187.827	7259.3462	505.61053
	10630	506.20284	-63.729753	569.93259	295.51734	19301.442	7259.3462	506.20284
	10640	506.10988	-63.714718	569.8246	295.46134	19378.505	7259.3462	506.10988
	10650	505.78869	-65.357353	571.14604	296.14653	20015.395	7259.3462	505.78869
	10660	506.33053	-65.588275	571.91881	296.54721	20741.271	7259.3462	506.33053
	10670	505.54495	-88.185877	593.73083	307.85703	21180.011	7259.3462	505.54495
	10680	505.71093	-86.91081	592.62174	307.28195	21443.233	7259.3462	505.71093
	10690	506.10674	-88.011035	594.11778	308.05767	21478.71	7259.3462	506.10674
	10700	506.05651	-71.87281	577.92932	299.66374	21636.299	7259.3462	506.05651
	10710	506.26565	-65.527636	571.79328	296.48213	21672.821	7259.3462	506.26565
	10720	505.67094	-89.566547	595.23749	308.63825	21346.38	7259.3462	505.67094
	10730	506.23444	-70.11717	576.35161	298.84568	20542.185	7259.3462	506.23444
	10740	506.14269	-87.145311	593.288	307.62742	20120.202	7259.3462	506.14269
	10750	505.89564	-70.169543	576.06518	298.69716	20316.362	7259.3462	505.89564
	10760	505.89014	-65.431651	571.32179	296.23765	20192.091	7259.3462	505.89014
	10770	505.83685	-73.993261	579.83011	300.64933	19762.409	7259.3462	505.83685
	10780	506.34284	-60.75589	567.09873	294.04794	19507.223	7259.3462	506.34284
	10790	506.12028	-72.832637	578.95292	300.19449	19346.897	7259.3462	506.12028
	10800	505.83363	-79.311928	585.14556	303.40546	19450.744	7259.3462	505.83363
	10810	506.03921	-63.498901	569.53811	295.3128	19387.102	7259.3462	506.03921
	10820	505.75283	-77.0965	582.84933	302.21483	19285.219	7259.3462	505.75283
	10830	506.53565	-55.686715	562.22236	291.51948	18987.431	7259.3462	506.53565
	10840	505.852	-67.231551	573.08355	297.15115	19050.186	7259.3462	505.852
	10850	505.89711	-74.795488	580.6926	301.09654	18633.323	7259.3462	505.89711
	10860	505.92052	-77.24695	583.16747	302.37979	18478.259	7259.3462	505.92052
	10870	506.2103	-67.75136	573.96166	297.60646	18243.283	7259.3462	506.2103
	10880	506.17212	-66.529764	572.70188	296.95325	18601.47	7259.3462	506.17212
	10890	505.69227	-75.681543	581.37381	301.44976	18588.348	7259.3462	505.69227
	10900	505.79906	-88.085121	593.88418	307.93654	18789.495	7259.3462	505.79906
	10910	505.95257	-68.566335	574.51891	297.8954	18659.663	7259.3462	505.95257
	10920	506.52525	-49.393912	555.91916	288.25119	18632.007	7259.3462	506.52525
	10930	505.47328	-80.725672	586.19895	303.95165	19006.149	7259.3462	505.47328
	10940	506.12694	-40.199536	546.32647	283.27726	19372.53	7259.3462	506.12694
	10950	505.92914	-66.921071	572.85022	297.03016	19284.612	7259.3462	505.92914
	10960	505.87126	-83.607404	589.47866	305.65223	19159.326	7259.3462	505.87126
	10970	506.00216	-73.69925	579.70141	300.58259	19340.557	7259.3462	506.00216
	10980	505.44137	-102.63678	608.07815	315.2963	19932.338	7259.3462	505.44137
	10990	506.39686	-64.918438	571.3153	296.23429	20686.621	7259.3462	506.39686
	11000	506.00633	-76.900167	582.90649	302.24447	21085.072	7259.3462	506.00633
	11010	505.61008	-101.25553	606.86561	314.66758	21402.136	7259.3462	505.61008
	11020	506.08862	-74.437274	580.5259	301.0101	21483.897	7259.3462	506.08862
	11030	506.01044	-65.547104	571.55754	296.35989	21718.722	7259.3462	506.01044
	11040	506.15759	-64.964591	571.12218	296.13416	21520.517	7259.3462	506.15759
	11050	505.73993	-71.104386	576.84431	299.10115	21013.418	7259.3462	505.73993
	11060	506.12156	-79.871213	585.99277	303.84475	20441.655	7259.3462	506.12156
	11070	506.2404	-76.011327	582.25173	301.90497	20247.717	7259.3462	506.2404
	11080	505.56769	-84.992112	590.55981	306.21281	20043.874	7259.3462	505.56769
	11090	506.16493	-73.788549	579.95348	300.71329	19748.005	7259.3462	506.16493
	11100	506.188	-52.952675	559.14067	289.92159	19759.947	7259.3462	506.188
	11110	506.65759	-46.797475	553.45507	286.97353	19531.169	7259.3462	506.65759
	11120	505.41266	-92.448062	597.86072	309.99843	19465.226	7259.3462	505.41266
	11130	506.06209	-77.167782	583.22987	302.41215	19159.657	7259.3462	506.06209
	11140	505.77994	-81.817401	587.59734	304.67674	19430.821	7259.3462	505.77994
	11150	505.41084	-87.448308	592.85914	307.40505	19778.439	7259.3462	505.41084
	11160	506.46507	-46.823566	553.28863	286.88723	19411.768	7259.3462	506.46507
	11170	505.88237	-66.876591	572.75896	296.98285	19656.81	7259.3462	505.88237
	11180	506.36145	-53.483551	559.845	290.28679	19703.259	7259.3462	506.36145
	11190	505.64071	-78.66662	584.30733	302.97082	19495.718	7259.3462	505.64071
	11200	505.92894	-76.179751	582.10869	301.8308	19561.715	7259.3462	505.92894
	11210	506.11564	-59.730765	565.8464	293.3986	19068.014	7259.3462	506.11564
	11220	505.63998	-87.203307	592.84328	307.39682	19150.696	7259.3462	505.63998
	11230	506.17377	-61.619979	567.79375	294.40832	19137.226	7259.3462	506.17377
	11240	506.15283	-50.368412	556.52124	288.56338	19108.585	7259.3462	506.15283
	11250	506.14111	-65.136323	571.27744	296.21466	19629.801	7259.3462	506.14111
	11260	505.90544	-53.219403	559.12484	289.91338	20053.534	7259.3462	505.90544
	11270	505.83593	-68.091673	573.92761	297.5888	20611.052	7259.3462	505.83593
	11280	506.11741	-70.788268	576.90568	299.13297	20767.115	7259.3462	506.11741
	11290	505.96862	-51.55056	557.51918	289.08083	20797.596	7259.3462	505.96862
	11300	505.75006	-77.423387	583.17345	302.38289	20984.99	7259.3462	505.75006
	11310	506.54422	-62.457901	569.00212	295.03488	20537.1	7259.3462	506.54422
	11320	505.43264	-95.653	601.08564	311.67059	20885.799	7259.3462	505.43264
	11330	505.61231	-98.172576	603.78488	313.07018	20492.592	7259.3462	505.61231
	11340	506.04423	-65.140565	571.18479	296.16662	20116.668	7259.3462	506.04423
	11350	506.42977	-68.007244	574.43701	297.85294	20014.491	7259.3462	506.42977
	11360	506.02869	-67.075101	573.10379	297.16164	19676.714	7259.3462	506.02869
	11370	505.19546	-93.296297	598.49176	310.32563	19478.832	7259.3462	505.19546
	11380	505.92106	-79.852052	585.77311	303.73085	19394.823	7259.3462	505.92106
	11390	506.45926	-45.275992	551.73525	286.08178	19254.196	7259.3462	506.45926
	11400	505.78531	-60.102021	565.88733	293.41982	19258.309	7259.3462	505.78531
	11410	505.87464	-47.140938	553.01558	286.74565	19168.431	7259.3462	505.87464
	11420	506.13045	-41.53214	547.66259	283.97005	18866.78	7259.3462	506.13045
	11430	506.36343	-55.999068	562.3625	291.59215	18698.738	7259.3462	506.36343
	11440	505.94191	-68.585872	574.52778	297.9	18698.326	7259.3462	505.94191
	11450	505.92836	-71.53712	577.46548	299.42324	18948.587	7259.3462	505.92836
	11460	506.02508	-70.4722	576.49728	298.92121	18933.531	7259.3462	506.02508
	11470	506.23612	-70.370819	576.60694	298.97807	18853.276	7259.3462	506.23612
	11480	505.99608	-75.114197	581.11027	301.31311	19273.776	7259.3462	505.99608
	11490	505.93118	-80.047564	585.97874	303.83747	19377.874	7259.3462	505.93118
	11500	506.46065	-72.831003	579.29165	300.37013	19677.287	7259.3462	506.46065
	11510	505.80463	-74.975252	580.77988	301.14179	20019.071	7259.3462	505.80463
	11520	506.18333	-74.403458	580.58678	301.04167	19701.037	7259.3462	506.18333
	11530	506.46246	-66.633904	573.09636	297.15779	19882.95	7259.3462	506.46246
	11540	505.80577	-78.894545	584.70032	303.17459	19909.664	7259.3462	505.80577
	11550	505.68798	-87.27245	592.96043	307.45757	20072.242	7259.3462	505.68798
	11560	505.86099	-73.183157	579.04415	300.24179	19805.805	7259.3462	505.86099
	11570	506.44899	-53.264904	559.7139	290.21881	19318.92	7259.3462	506.44899
	11580	506.14796	-66.451689	572.59965	296.90024	19292.501	7259.3462	506.14796
	11590	505.36333	-77.434501	582.79783	302.18813	19314.432	7259.3462	505.36333
	11600	506.19927	-64.123221	570.32249	295.71951	19500.106	7259.3462	506.19927
	11610	506.30585	-53.142044	559.4479	290.08089	19626.257	7259.3462	506.30585
	11620	505.63674	-75.110347	580.74709	301.12479	19245.296	7259.3462	505.63674
	11630	505.76275	-78.141747	583.9045	302.76195	19541.831	7259.3462	505.76275
	11640	505.80466	-61.039689	566.84434	293.91604	19270.033	7259.3462	505.80466
	11650	506.49602	-39.147703	545.64373	282.92325	19748.745	7259.3462	506.49602
	11660	505.7826	-53.566101	559.3487	290.02945	19851.031	7259.3462	505.7826
	11670	505.57374	-72.423029	577.99677	299.69872	19428.922	7259.3462	505.57374
	11680	506.21938	-65.374665	571.59405	296.37882	19143.857	7259.3462	506.21938
	11690	505.9417	-55.920604	561.8623	291.33279	19259.037	7259.3462	505.9417
	11700	506.23721	-60.605314	566.84253	293.9151	19138.45	7259.3462	506.23721
	11710	505.7764	-75.536556	581.31295	301.4182	18968.815	7259.3462	505.7764
	11720	506.01515	-68.228743	574.24389	297.7528	18771.656	7259.3462	506.01515
	11730	505.70583	-77.484437	583.19027	302.39161	19208.314	7259.3462	505.70583
	11740	505.9411	-63.81983	569.76093	295.42833	19535.566	7259.3462	505.9411
	11750	506.22581	-55.203262	561.42907	291.10815	19346.495	7259.3462	506.22581
	11760	505.56512	-76.326674	581.8918	301.71834	19182.005	7259.3462	505.56512
	11770	506.05517	-65.067059	571.12223	296.13418	18920.147	7259.3462	506.05517
	11780	506.17397	-55.982328	562.15629	291.48523	18845.227	7259.3462	506.17397
	11790	505.99529	-79.2738	585.26909	303.46951	18687.231	7259.3462	505.99529
	11800	505.81989	-83.434288	589.25417	305.53582	18759.405	7259.3462	505.81989
	11810	505.81819	-75.124756	580.94295	301.22635	18730.452	7259.3462	505.81819
	11820	506.34003	-66.464562	572.80459	297.0065	18920.797	7259.3462	506.34003
	11830	505.93344	-67.030855	572.96429	297.08931	19657.115	7259.3462	505.93344
	11840	505.81065	-69.05455	574.8652	298.07496	20054.835	7259.3462	505.81065
	11850	506.17971	-60.399895	566.5796	293.77877	19689.299	7259.3462	506.17971
	11860	506.04715	-88.380643	594.42779	308.21841	20062.085	7259.3462	506.04715
	11870	505.74737	-93.949894	599.69727	310.9507	20010.124	7259.3462	505.74737
	11880	505.72037	-81.194951	586.91532	304.3231	20171.214	7259.3462	505.72037
	11890	506.18879	-70.178258	576.36705	298.85369	20211.593	7259.3462	506.18879
	11900	506.19833	-55.247334	561.44566	291.11675	19639.082	7259.3462	506.19833
	11910	505.98224	-69.348124	575.33036	298.31615	19603.432	7259.3462	505.98224
	11920	506.08637	-70.581046	576.66741	299.00943	19356.378	7259.3462	506.08637
	11930	505.9703	-82.595037	588.56534	305.17866	19301.9	7259.3462	505.9703
	11940	506.01259	-103.21081	609.2234	315.89012	19203.559	7259.3462	506.01259
	11950	505.88896	-97.083712	602.97267	312.64904	18715.481	7259.3462	505.88896
	11960	505.92561	-106.53904	612.46465	317.57075	18670.611	7259.3462	505.92561
	11970	505.71552	-89.428931	595.14445	308.59001	18730.724	7259.3462	505.71552
	11980	506.24639	-64.599431	570.84582	295.99086	19081.11	7259.3462	506.24639
	11990	506.24367	-86.250143	592.49381	307.21562	19437.64	7259.3462	506.24367
	12000	505.86572	-81.083662	586.94938	304.34076	19431.21	7259.3462	505.86572
	12010	506.00185	-94.932813	600.93466	311.59231	19661.425	7259.3462	506.00185
	12020	505.72192	-97.591879	603.3138	312.82592	20489.608	7259.3462	505.72192
	12030	506.22816	-79.196842	585.42501	303.55035	20869.481	7259.3462	506.22816
	12040	505.76429	-99.29479	605.05908	313.73087	21316.782	7259.3462	505.76429
	12050	505.87025	-97.47432	603.34457	312.84187	20902.982	7259.3462	505.87025
	12060	505.91858	-102.91439	608.83296	315.68768	20940.897	7259.3462	505.91858
	12070	506.05755	-94.052937	600.11048	311.16496	21485.344	7259.3462	506.05755
	12080	506.37324	-87.050636	593.42387	307.69787	21184.579	7259.3462	506.37324
	12090	505.66484	-116.4352	622.10003	322.56682	20770.952	7259.3462	505.66484
	12100	505.9134	-112.82726	618.74066	320.82495	20223.959	7259.3462	505.9134
	12110	505.60561	-112.98762	618.59323	320.7485	20216.299	7259.3462	505.60561
	12120	506.21636	-88.155352	594.37171	308.18933	20313.401	7259.3462	506.21636
	12130	506.03204	-74.548515	580.58055	301.03844	19998.333	7259.3462	506.03204
	12140	505.89368	-71.666723	577.5604	299.47246	19610.652	7259.3462	505.89368
	12150	505.9073	-61.656448	567.56374	294.28906	19549.36	7259.3462	505.9073
	12160	506.23489	-69.047086	575.28197	298.29106	19503.948	7259.3462	506.23489
	12170	505.85101	-67.72704	573.57805	297.40755	19741.032	7259.3462	505.85101
	12180	505.94897	-68.89576	574.84473	298.06434	19168.389	7259.3462	505.94897
	12190	506.04555	-76.589299	582.63485	302.10362	18657.844	7259.3462	506.04555
	12200	506.11055	-68.503407	574.61396	297.94469	18802.782	7259.3462	506.11055
	12210	505.91366	-74.905809	580.81947	301.16232	19091.71	7259.3462	505.91366
	12220	505.78384	-63.651658	569.4355	295.25959	19324.312	7259.3462	505.78384
	12230	506.1961	-60.864023	567.06012	294.02792	19333.543	7259.3462	506.1961
	12240	505.95594	-74.313276	580.26922	300.87701	19042.552	7259.3462	505.95594
	12250	506.06949	-68.295432	574.36492	297.81556	19057.788	7259.3462	506.06949
	12260	505.80665	-76.820487	582.62714	302.09962	19627.597	7259.3462	505.80665
	12270	505.78487	-85.484422	591.2693	306.58069	19958.956	7259.3462	505.78487
	12280	505.84775	-70.418819	576.26657	298.80158	19997.034	7259.3462	505.84775
	12290	506.03994	-63.066234	569.10618	295.08883	19925.263	7259.3462	506.03994
	12300	505.66346	-84.847832	590.51129	306.18766	19976.163	7259.3462	505.66346
	12310	506.12495	-62.03047	568.15542	294.59585	19820.771	7259.3462	506.12495
	12320	506.15098	-77.343508	583.49449	302.54935	19799.553	7259.3462	506.15098
	12330	505.9123	-82.773056	588.68536	305.24089	19827.353	7259.3462	505.9123
	12340	506.06968	-76.660368	582.73005	302.15298	19796.487	7259.3462	506.06968
	12350	505.29002	-115.8667	621.15672	322.0777	20432.007	7259.3462	505.29002
	12360	506.02513	-83.471566	589.4967	305.66158	20714.129	7259.3462	506.02513
	12370	506.0852	-75.873524	581.95873	301.75304	20335.272	7259.3462	506.0852
	12380	505.96292	-71.462113	577.42504	299.40227	20600.309	7259.3462	505.96292
	12390	506.02397	-66.885789	572.90976	297.06104	20923.395	7259.3462	506.02397
	12400	505.6412	-81.069904	586.7111	304.21721	20966.761	7259.3462	505.6412
	12410	506.00888	-70.526485	576.53537	298.94096	20822.633	7259.3462	506.00888
	12420	505.70603	-77.02913	582.73516	302.15563	20312.042	7259.3462	505.70603
	12430	505.52003	-88.697082	594.21711	308.10917	19943.165	7259.3462	505.52003
	12440	505.82963	-76.163597	581.99323	301.77093	19955.672	7259.3462	505.82963
	12450	506.38184	-52.276037	558.65788	289.67125	19633.682	7259.3462	506.38184
	12460	506.14358	-66.425422	572.569	296.88435	19941.943	7259.3462	506.14358
	12470	505.82263	-71.903172	577.7258	299.55821	20219.545	7259.3462	505.82263
	12480	505.57089	-83.247154	588.81804	305.30968	19907.667	7259.3462	505.57089
	12490	506.02016	-91.289535	597.3097	309.71272	19870.926	7259.3462	506.02016
	12500	505.81329	-78.014566	583.82786	302.72221	19510.669	7259.3462	505.81329
	12510	505.83033	-92.770198	598.60053	310.38203	19782.838	7259.3462	505.83033
	12520	506.29755	-68.383417	574.68097	297.97943	19659.566	7259.3462	506.29755
	12530	506.00166	-74.263976	580.26563	300.87515	19804.99	7259.3462	506.00166
	12540	505.68955	-105.08141	610.77097	316.69256	20086.92	7259.3462	505.68955
	12550	505.7422	-92.921218	598.66342	310.41464	20107.665	7259.3462	505.7422
	12560	505.86802	-102.95382	608.82184	315.68191	20583.759	7259.3462	505.86802
	12570	505.56345	-101.58816	607.15161	314.81588	20301.612	7259.3462	505.56345
	12580	506.2891	-78.055277	584.34438	302.99003	20122.633	7259.3462	506.2891
	12590	506.12467	-79.546067	585.67073	303.67777	20085.139	7259.3462	506.12467
	12600	506.1674	-86.187967	592.35537	307.14383	19898.388	7259.3462	506.1674
	12610	505.29109	-119.45695	624.74804	323.93985	19715.43	7259.3462	505.29109
	12620	505.72678	-101.66934	607.39612	314.94265	19565.438	7259.3462	505.72678
	12630	506.40191	-79.225144	585.62706	303.65512	19542.189	7259.3462	506.40191
	12640	505.71807	-72.681052	578.39912	299.90734	19633.4	7259.3462	505.71807
	12650	506.27404	-64.74263	571.01667	296.07944	19737.507	7259.3462	506.27404
	12660	505.70078	-80.93379	586.63457	304.17753	20079.141	7259.3462	505.70078
	12670	505.77035	-82.365787	588.13613	304.95611	20000.923	7259.3462	505.77035
	12680	505.68214	-90.152447	595.83459	308.94785	19905.462	7259.3462	505.68214
	12690	506.00605	-77.819915	583.82597	302.72123	19432.119	7259.3462	506.00605
	12700	505.9011	-79.0675	584.9686	303.3137	19458.811	7259.3462	505.9011
	12710	506.06415	-68.448793	574.51294	297.89231	19834.496	7259.3462	506.06415
	12720	505.90413	-62.744158	568.64828	294.85141	20032.023	7259.3462	505.90413
	12730	505.79189	-81.003542	586.79543	304.26094	19748.459	7259.3462	505.79189
	12740	505.94126	-67.110311	573.05157	297.13457	19954.149	7259.3462	505.94126
	12750	505.69776	-73.61801	579.31577	300.38263	20028.545	7259.3462	505.69776
	12760	506.22305	-63.766813	569.98986	295.54703	20253.529	7259.3462	506.22305
	12770	506.06476	-62.940349	569.00511	295.03643	20324.912	7259.3462	506.06476
	12780	505.63372	-95.122424	600.75615	311.49975	20060.6	7259.3462	505.63372
	12790	505.4857	-82.240205	587.72591	304.7434	20003.132	7259.3462	505.4857
	12800	505.93458	-77.438713	583.37329	302.48651	19874.024	7259.3462	505.93458
	12810	505.85803	-76.280418	582.13845	301.84623	19811.918	7259.3462	505.85803
	12820	505.99208	-53.156198	559.14828	289.92553	19583.46	7259.3462	505.99208
	12830	505.59682	-82.212022	587.80884	304.7864	19715.357	7259.3462	505.59682
	12840	506.01917	-70.662761	576.68193	299.01695	19618.348	7259.3462	506.01917
	12850	506.09481	-61.18152	567.27633	294.14003	19395.537	7259.3462	506.09481
	12860	505.50211	-94.824164	600.32628	311.27685	19819.605	7259.3462	505.50211
	12870	506.09129	-89.624396	595.71569	308.8862	19419.436	7259.3462	506.09129
	12880	505.66861	-80.822938	586.49155	304.10337	19370.442	7259.3462	505.66861
	12890	506.02953	-99.347613	605.37714	313.89579	19500.115	7259.3462	506.02953
	12900	505.94435	-82.040035	587.98438	304.87742	19889.553	7259.3462	505.94435
	12910	505.91464	-91.832357	597.747	309.93946	20460.119	7259.3462	505.91464
	12920	505.59967	-111.89943	617.4991	320.18118	20552.889	7259.3462	505.59967
	12930	506.14388	-79.119527	585.2634	303.46656	20469.188	7259.3462	506.14388
	12940	505.95061	-97.36946	603.32007	312.82917	21092.412	7259.3462	505.95061
	12950	505.73039	-86.908464	592.63886	307.29083	21633.534	7259.3462	505.73039
	12960	505.96994	-79.958643	585.92858	303.81146	22120.038	7259.3462	505.96994
	12970	505.55744	-108.32914	613.88659	318.30805	21603.373	7259.3462	505.55744
	12980	506.20956	-59.846125	566.05568	293.50711	20459.687	7259.3462	506.20956
	12990	505.79647	-87.114183	592.91065	307.43176	20004.961	7259.3462	505.79647
	13000	506.11704	-82.360064	588.47711	305.13291	19660.506	7259.3462	506.11704
	13010	505.60458	-73.493677	579.09826	300.26985	19395.899	7259.3462	505.60458
	13020	505.84329	-93.742489	599.58578	310.89289	19133.854	7259.3462	505.84329
	13030	505.85672	-71.889688	577.74641	299.5689	18997.136	7259.3462	505.85672
	13040	505.96671	-52.99187	558.95858	289.82717	19373.329	7259.3462	505.96671
	13050	506.14421	-63.995538	570.13975	295.62475	19697.522	7259.3462	506.14421
	13060	505.49132	-74.498806	579.99013	300.7323	19525.757	7259.3462	505.49132
	13070	506.17098	-81.59465	587.76563	304.764	19233.255	7259.3462	506.17098
	13080	505.39408	-105.08319	610.47727	316.54027	18996.998	7259.3462	505.39408
	13090	505.98883	-66.59536	572.58419	296.89222	18922.441	7259.3462	505.98883
	13100	505.59942	-81.326537	586.92596	304.32861	18827.557	7259.3462	505.59942
	13110	506.32152	-59.183897	565.50541	293.22179	18395.981	7259.3462	506.32152
	13120	506.12336	-62.843613	568.96697	295.01665	18472.04	7259.3462	506.12336
	13130	505.56933	-102.84281	608.41215	315.46948	18796.681	7259.3462	505.56933
	13140	505.89902	-84.02483	589.92385	305.88306	19130.896	7259.3462	505.89902
	13150	505.61546	-100.30385	605.91931	314.17691	19431.466	7259.3462	505.61546
	13160	506.30345	-71.075876	577.37933	299.37857	19640.016	7259.3462	506.30345
	13170	506.13013	-61.685506	567.81564	294.41967	19755.965	7259.3462	506.13013
	13180	505.88734	-75.510276	581.39762	301.4621	19723.768	7259.3462	505.88734
	13190	505.94109	-74.807665	580.74876	301.12566	19576.709	7259.3462	505.94109
	13200	505.77567	-75.403715	581.17939	301.34895	19485.276	7259.3462	505.77567
	13210	505.7464	-80.823397	586.5698	304.14394	19388.78	7259.3462	505.7464
	13220	505.97391	-79.535351	585.50926	303.59404	19343.738	7259.3462	505.97391
	13230	505.93843	-71.781537	577.71997	299.55519	19330.937	7259.3462	505.93843
	13240	505.99185	-90.679146	596.671	309.38154	19390.674	7259.3462	505.99185
	13250	506.12614	-77.485739	583.61188	302.61022	19673.557	7259.3462	506.12614
	13260	505.73637	-90.852015	596.58839	309.33871	19687.19	7259.3462	505.73637
	13270	505.69489	-95.185181	600.88007	311.564	19622.363	7259.3462	505.69489
	13280	505.88834	-67.146788	573.03513	297.12604	19582.605	7259.3462	505.88834
	13290	506.02152	-82.947543	588.96907	305.38799	19718.455	7259.3462	506.02152
	13300	505.77849	-77.727533	583.50603	302.55534	19727.517	7259.3462	505.77849
	13310	505.85032	-65.441466	571.29179	296.2221	19844.496	7259.3462	505.85032
	13320	506.05093	-83.99454	590.04547	305.94612	19647.115	7259.3462	506.05093
	13330	506.00852	-71.725901	577.73442	299.56269	19588.139	7259.3462	506.00852
	13340	505.48781	-116.18489	621.67271	322.34525	19659.019	7259.3462	505.48781
	13350	505.40487	-104.38256	609.78743	316.18258	19905.825	7259.3462	505.40487
	13360	506.22674	-66.300278	572.52702	296.86258	19830.436	7259.3462	506.22674
	13370	505.95094	-96.157136	602.10808	312.20074	19714.209	7259.3462	505.95094
	13380	505.84532	-68.293388	574.13871	297.69826	20020.146	7259.3462	505.84532
	13390	505.9156	-66.145704	572.0613	296.6211	19979.759	7259.3462	505.9156
	13400	506.00842	-83.238015	589.24644	305.53181	19755.143	7259.3462	506.00842
	13410	505.7799	-74.444901	580.2248	300.85398	19578.437	7259.3462	505.7799
	13420	505.55401	-89.181543	594.73555	308.37799	19908.012	7259.3462	505.55401
	13430	505.97698	-70.5016	576.47858	298.91152	20177.078	7259.3462	505.97698
	13440	506.08987	-45.703468	551.79334	286.1119	20151.725	7259.3462	506.08987
	13450	505.74261	-83.114046	588.85665	305.32971	19896.236	7259.3462	505.74261
	13460	505.93426	-71.683066	577.61732	299.50197	19520.154	7259.3462	505.93426
	13470	506.41755	-54.92395	561.3415	291.06274	19400.013	7259.3462	506.41755
	13480	505.51022	-104.1087	609.61892	316.09521	19787.783	7259.3462	505.51022
	13490	505.83542	-65.424569	571.25999	296.20561	19489.279	7259.3462	505.83542
	13500	506.24307	-76.00369	582.24676	301.90239	19549.862	7259.3462	506.24307
	13510	506.03918	-92.008465	598.04764	310.09535	19656.75	7259.3462	506.03918
	13520	505.79193	-68.28743	574.07936	297.66749	19880.147	7259.3462	505.79193
	13530	505.51815	-103.10519	608.62333	315.57898	20035.038	7259.3462	505.51815
	13540	506.29659	-64.849378	571.14597	296.14649	19744.027	7259.3462	506.29659
	13550	506.31529	-59.845957	566.16125	293.56185	19783.486	7259.3462	506.31529
	13560	505.6673	-89.722051	595.38935	308.71699	19981.745	7259.3462	505.6673
	13570	506.07652	-45.489638	551.56616	285.99411	20020.112	7259.3462	506.07652
	13580	506.00906	-75.270849	581.27991	301.40107	19908.51	7259.3462	506.00906
	13590	505.79868	-76.469129	582.26781	301.91331	19507.776	7259.3462	505.79868
	13600	505.82146	-80.167787	585.98925	303.84292	19515.688	7259.3462	505.82146
	13610	505.61091	-90.777101	596.38801	309.23481	19742.181	7259.3462	505.61091
	13620	505.91017	-63.967782	569.87795	295.48901	19922.823	7259.3462	505.91017
	13630	506.42143	-56.738698	563.16013	292.00573	19647.605	7259.3462	506.42143
	13640	505.94243	-74.592236	580.53466	301.01465	19316.738	7259.3462	505.94243
	13650	505.99903	-91.830957	597.82999	309.9825	19471.531	7259.3462	505.99903
	13660	505.4607	-91.022134	596.48283	309.28398	19868.238	7259.3462	505.4607
	13670	505.67173	-87.453858	593.12558	307.5432	19899.954	7259.3462	505.67173
	13680	506.74344	-56.526288	563.26973	292.06256	19564.929	7259.3462	506.74344
	13690	505.65689	-69.529802	575.18669	298.24166	19329.61	7259.3462	505.65689
	13700	505.87514	-80.611982	586.48712	304.10107	19483.878	7259.3462	505.87514
	13710	506.17376	-57.3557	563.52946	292.19723	19604.662	7259.3462	506.17376
	13720	505.98283	-73.240698	579.22353	300.33481	19399.933	7259.3462	505.98283
	13730	505.81798	-83.006234	588.82421	305.31288	19332.306	7259.3462	505.81798
	13740	505.73081	-71.774541	577.50535	299.44391	19181.688	7259.3462	505.73081
	13750	506.31584	-76.802953	583.11879	302.35455	19316.459	7259.3462	506.31584
	13760	506.03374	-51.270893	557.30463	288.96958	19321.445	7259.3462	506.03374
	13770	506.0342	-64.520961	570.55516	295.84015	19037.531	7259.3462	506.0342
	13780	505.84523	-82.141462	587.9867	304.87862	18956.282	7259.3462	505.84523
	13790	505.72248	-67.961593	573.68407	297.46253	18965.16	7259.3462	505.72248
	13800	505.76406	-82.765141	588.5292	305.15992	19316.478	7259.3462	505.76406
	13810	505.96467	-66.569589	572.53426	296.86633	19207.941	7259.3462	505.96467
	13820	506.42078	-55.432746	561.85353	291.32824	18926.664	7259.3462	506.42078
	13830	505.72163	-92.336953	598.05858	310.10102	19150.363	7259.3462	505.72163
	13840	505.35943	-94.048186	599.40762	310.80051	19724.802	7259.3462	505.35943
	13850	506.12036	-82.804814	588.92517	305.36523	19380.972	7259.3462	506.12036
	13860	505.98561	-76.72629	582.7119	302.14357	19434.007	7259.3462	505.98561
	13870	506.15174	-59.411521	565.56326	293.25178	19389.869	7259.3462	506.15174
	13880	505.88948	-65.137536	571.02702	296.08481	19430.108	7259.3462	505.88948
	13890	505.99898	-60.20942	566.2084	293.5863	19573.248	7259.3462	505.99898
	13900	505.88953	-71.577298	577.46682	299.42393	19509.723	7259.3462	505.88953
	13910	505.62005	-73.484989	579.10504	300.27337	19201.53	7259.3462	505.62005
	13920	505.8655	-70.220907	576.08641	298.70817	18913.945	7259.3462	505.8655
	13930	506.06758	-57.824706	563.89228	292.38536	18658.636	7259.3462	506.06758
	13940	506.14951	-69.862627	576.01214	298.66966	18952.19	7259.3462	506.14951
	13950	506.03743	-55.784715	561.82215	291.31197	19000.359	7259.3462	506.03743
	13960	506.05648	-69.848702	575.90519	298.6142	19491.172	7259.3462	506.05648
	13970	505.21036	-113.06441	618.27477	320.58338	19861.715	7259.3462	505.21036
	13980	505.99872	-54.389796	560.38852	290.56861	19565.167	7259.3462	505.99872
	13990	506.17682	-70.933706	577.11053	299.23919	19886.194	7259.3462	506.17682
	14000	506.24403	-57.237603	563.48163	292.17243	19951.257	7259.3462	506.24403
	14010	505.95146	-65.085395	571.03686	296.08991	20289.001	7259.3462	505.95146
	14020	505.4121	-101.55898	606.97108	314.72227	20186.307	7259.3462	505.4121
	14030	506.35946	-64.475763	570.83522	295.98536	19825.602	7259.3462	506.35946
	14040	505.82775	-94.729534	600.55728	311.39663	19902.239	7259.3462	505.82775
	14050	505.77996	-86.676116	592.45608	307.19605	19618.05	7259.3462	505.77996
	14060	506.31606	-60.646456	566.96251	293.97731	19092.379	7259.3462	506.31606
	14070	505.96011	-87.668096	593.6282	307.80382	19016.944	7259.3462	505.96011
	14080	506.2709	-60.031856	566.30276	293.63522	18560.364	7259.3462	506.2709
	14090	505.274	-94.933684	600.20768	311.21536	18987.71	7259.3462	505.274
	14100	505.85225	-81.836315	587.68857	304.72404	18911.81	7259.3462	505.85225
	14110	505.82042	-51.638629	557.45905	289.04965	18413.186	7259.3462	505.82042
	14120	506.27539	-53.111522	559.38691	290.04927	18412.557	7259.3462	506.27539
	14130	506.34361	-42.018598	548.36221	284.33282	18349.062	7259.3462	506.34361
	14140	505.50377	-72.903788	578.40756	299.91172	18819.392	7259.3462	505.50377
	14150	505.67035	-90.648252	596.3186	309.19882	18906.948	7259.3462	505.67035
	14160	505.63128	-77.826769	583.45805	302.53046	18678.728	7259.3462	505.63128
	14170	506.14834	-68.57496	574.7233	298.00138	18717.899	7259.3462	506.14834
	14180	506.08204	-78.150822	584.23286	302.93221	18889.338	7259.3462	506.08204
	14190	505.43221	-76.42951	581.86172	301.70274	19456.808	7259.3462	505.43221
	14200	505.96707	-80.122815	586.08989	303.8951	19632.845	7259.3462	505.96707
	14210	505.73561	-84.704391	590.44	306.15069	19643.297	7259.3462	505.73561
	14220	505.45673	-93.650345	599.10708	310.64468	19788.033	7259.3462	505.45673
	14230	505.85999	-70.273086	576.13308	298.73237	20081.898	7259.3462	505.85999
	14240	505.64167	-55.772274	561.41395	291.10031	20154.818	7259.3462	505.64167
	14250	506.3773	-45.963302	552.3406	286.39566	19997.81	7259.3462	506.3773
	14260	505.82275	-64.318431	570.14118	295.62549	19697.488	7259.3462	505.82275
	14270	505.52384	-91.42856	596.9524	309.52745	19541.69	7259.3462	505.52384
	14280	505.72302	-92.755256	598.47827	310.31864	19574.012	7259.3462	505.72302
	14290	505.51828	-85.196869	590.71515	306.29336	19563.89	7259.3462	505.51828
	14300	506.2223	-60.370046	566.59234	293.78538	19604.155	7259.3462	506.2223
	14310	506.03835	-58.064461	564.10281	292.49452	19405.475	7259.3462	506.03835
	14320	506.03113	-67.838128	573.86926	297.55855	19698.528	7259.3462	506.03113
	14330	505.57684	-77.815784	583.39262	302.49654	19977.272	7259.3462	505.57684
	14340	505.60287	-86.329601	591.93247	306.92456	19711.068	7259.3462	505.60287
	14350	506.018	-82.569028	588.58703	305.1899	19609.925	7259.3462	506.018
	14360	505.97817	-64.087789	570.06595	295.58649	19549.261	7259.3462	505.97817
	14370	505.47178	-86.751911	592.22369	307.07556	19697.002	7259.3462	505.47178
	14380	506.17208	-72.240171	578.41225	299.91415	19723.29	7259.3462	506.17208
	14390	506.03169	-69.340884	575.37257	298.33804	19858.362	7259.3462	506.03169
	14400	505.78441	-91.554724	597.33913	309.72798	20022.795	7259.3462	505.78441
	14410	505.75683	-77.197401	582.95423	302.26922	20256.233	7259.3462	505.75683
	14420	505.45574	-80.985505	586.44125	304.07729	20816.843	7259.3462	505.45574
	14430	506.34813	-53.120219	559.46835	290.0915	20655.505	7259.3462	506.34813
	14440	505.7751	-69.910432	575.68553	298.50031	20360.566	7259.3462	505.7751
	14450	506.05643	-79.296292	585.35272	303.51287	19757.582	7259.3462	506.05643
	14460	505.74139	-67.948358	573.68974	297.46547	19439.21	7259.3462	505.74139
	14470	505.76455	-85.175835	590.94038	306.41015	19399.049	7259.3462	505.76455
	14480	505.90226	-73.098221	579.00048	300.21915	19320.337	7259.3462	505.90226
	14490	505.79784	-63.177309	568.97515	295.02089	19145.842	7259.3462	505.79784
	14500	506.12738	-65.836067	571.96344	296.57036	19305.827	7259.3462	506.12738
	14510	505.31608	-59.136699	564.45278	292.67598	19799.61	7259.3462	505.31608
	14520	506.15301	-55.85844	562.01145	291.41012	19307.787	7259.3462	506.15301
	14530	505.75387	-66.142372	571.89624	296.53552	19263.358	7259.3462	505.75387
	14540	506.33881	-57.983557	564.32237	292.60836	19132.093	7259.3462	506.33881
	14550	505.67328	-83.514601	589.18788	305.50145	19092.204	7259.3462	505.67328
	14560	505.69359	-75.55932	581.25291	301.38707	19680.007	7259.3462	505.69359
	14570	506.46932	-52.825334	559.29465	290.00143	20046.081	7259.3462	506.46932
	14580	505.22947	-90.327057	595.55653	308.80368	20480.028	7259.3462	505.22947
	14590	506.18027	-64.561099	570.74137	295.9367	20581.858	7259.3462	506.18027
	14600	505.28718	-77.117151	582.40433	301.98409	20593.327	7259.3462	505.28718
	14610	506.3269	-59.403487	565.73039	293.33844	20794.834	7259.3462	506.3269
	14620	505.90305	-56.312275	562.21533	291.51584	20948.724	7259.3462	505.90305
	14630	506.0006	-69.723883	575.72448	298.52051	20840.506	7259.3462	506.0006
	14640	505.69702	-79.338932	585.03595	303.34862	21104.415	7259.3462	505.69702
	14650	505.41586	-82.880215	588.29607	305.03904	21222.776	7259.3462	505.41586
	14660	506.18283	-73.498693	579.68152	300.57228	20982.789	7259.3462	506.18283
	14670	506.04068	-64.012261	570.05294	295.57974	20959.8	7259.3462	506.04068
	14680	506.14592	-69.311381	575.4573	298.38197	20788.332	7259.3462	506.14592
	14690	505.54257	-72.604981	578.14755	299.7769	21056.615	7259.3462	505.54257
	14700	506.1935	-61.154897	567.3484	294.1774	21078.711	7259.3462	506.1935
	14710	505.91044	-76.587472	582.49791	302.03262	21336.296	7259.3462	505.91044
	14720	505.72986	-75.646253	581.37611	301.45095	21445.863	7259.3462	505.72986
	14730	505.6261	-74.125296	579.7514	300.60851	21191.472	7259.3462	505.6261
	14740	506.32752	-58.687167	565.01468	292.96734	20473.72	7259.3462	506.32752
	14750	506.16108	-56.96785	563.12893	291.98955	20408.147	7259.3462	506.16108
	14760	505.577	-79.851276	585.42827	303.55205	20490.056	7259.3462	505.577
	14770	505.40662	-101.75067	607.15729	314.81882	20232.735	7259.3462	505.40662
	14780	506.02716	-73.225076	579.25223	300.34969	19946.987	7259.3462	506.02716
	14790	506.13663	-57.346887	563.48352	292.17341	19616.451	7259.3462	506.13663
	14800	506.02944	-50.981024	557.01047	288.81705	19449.354	7259.3462	506.02944
	14810	506.4136	-54.099681	560.51328	290.6333	18961.572	7259.3462	506.4136
	14820	505.78593	-76.674421	582.46035	302.01314	18724.517	7259.3462	505.78593
	14830	505.3356	-102.07553	607.41113	314.95044	18422.803	7259.3462	505.3356
	14840	505.81377	-84.150984	589.96475	305.90427	18322.401	7259.3462	505.81377
	14850	506.07253	-52.16363	558.23616	289.45259	18317.483	7259.3462	506.07253
	14860	506.24891	-34.983262	541.23217	280.6358	18428.124	7259.3462	506.24891
	14870	505.88621	-41.579184	547.46539	283.86781	18553.799	7259.3462	505.88621
	14880	506.01678	-54.052722	560.0695	290.4032	18449.372	7259.3462	506.01678
	14890	505.89115	-67.677919	573.56907	297.4029	18672.544	7259.3462	505.89115
	14900	505.14241	-84.59545	589.73786	305.78662	19106.524	7259.3462	505.14241
	14910	505.96328	-39.006164	544.96944	282.57362	19145.203	7259.3462	505.96328
	14920	506.52059	-14.492289	521.01288	270.15184	19244.043	7259.3462	506.52059
	14930	506.31626	-24.661437	530.97769	275.31872	19531.452	7259.3462	506.31626
	14940	505.43857	-62.181508	567.62008	294.31827	19680.846	7259.3462	505.43857
	14950	505.9556	-73.616491	579.57209	300.51554	19573.45	7259.3462	505.9556
	14960	505.8257	-62.39287	568.21857	294.62859	19611.011	7259.3462	505.8257
	14970	505.74759	-64.643023	570.39061	295.75483	19834.223	7259.3462	505.74759
	14980	505.81755	-51.71686	557.53441	289.08872	19773.093	7259.3462	505.81755
	14990	506.11715	-30.461708	536.57885	278.223	19677.555	7259.3462	506.11715
	15000	506.5152	-44.847296	551.36249	285.8885	19615.502	7259.3462	506.5152
	15010	505.38749	-70.135673	575.52316	298.41612	19879.549	7259.3462	505.38749
	15020	505.88708	-61.06931	566.95639	293.97414	19967.987	7259.3462	505.88708
	15030	505.87103	-58.791257	564.66229	292.78462	20039.656	7259.3462	505.87103
	15040	506.10565	-48.650384	554.75603	287.6481	19683.626	7259.3462	506.10565
	15050	505.79538	-54.069207	559.86458	290.29695	19471.326	7259.3462	505.79538
	15060	506.0305	-46.501022	552.53152	286.49466	18995.257	7259.3462	506.0305
	15070	505.99111	-52.58182	558.57293	289.62721	19007.72	7259.3462	505.99111
	15080	505.73065	-63.478517	569.20917	295.14223	19126.109	7259.3462	505.73065
	15090	505.97842	-62.937492	568.91591	294.99017	18779.366	7259.3462	505.97842
	15100	505.91392	-57.001244	562.91516	291.87871	18971.83	7259.3462	505.91392
	15110	505.89564	-60.140607	566.03625	293.49703	19121.123	7259.3462	505.89564
	15120	505.79007	-70.421242	576.21131	298.77293	19542.629	7259.3462	505.79007
	15130	506.18116	-50.463472	556.64463	288.62736	19984.481	7259.3462	506.18116
	15140	505.8512	-73.053717	578.90492	300.1696	19776.987	7259.3462	505.8512
	15150	505.36961	-84.813238	590.18285	306.01736	19730.459	7259.3462	505.36961
	15160	506.07884	-65.33741	571.41625	296.28663	19264.639	7259.3462	506.07884
	15170	506.51803	-63.55045	570.06848	295.5878	19024.48	7259.3462	506.51803
	15180	505.91015	-66.493091	572.40324	296.7984	19271.214	7259.3462	505.91015
	15190	505.85756	-64.047624	569.90519	295.50313	19416.485	7259.3462	505.85756
	15200	505.69903	-61.322622	567.02165	294.00798	19120.268	7259.3462	505.69903
	15210	506.30119	-48.75737	555.05856	287.80496	19184.237	7259.3462	506.30119
	15220	506.03421	-41.296916	547.33112	283.79819	19273.253	7259.3462	506.03421
	15230	505.8076	-57.784127	563.59173	292.22952	19216.02	7259.3462	505.8076
	15240	506.34929	-55.337756	561.68704	291.24192	18954.65	7259.3462	506.34929
	15250	505.74302	-62.90615	568.64917	294.85186	18827.52	7259.3462	505.74302
	15260	506.04541	-78.713373	584.75878	303.20491	19207.888	7259.3462	506.04541
	15270	506.17041	-61.0144	567.18481	294.09258	19111.368	7259.3462	506.17041
	15280	505.38235	-92.537803	597.92016	310.02925	19664.4	7259.3462	505.38235
	15290	505.75501	-70.56508	576.32009	298.82934	19738.531	7259.3462	505.75501
	15300	506.21001	-45.362859	551.57287	285.99759	19795.487	7259.3462	506.21001
	15310	506.74273	-48.634509	555.37724	287.9702	19633.381	7259.3462	506.74273
	15320	505.403	-68.728523	574.13152	297.69454	20006.893	7259.3462	505.403
	15330	505.61667	-76.887961	582.50463	302.0361	20199.7	7259.3462	505.61667
	15340	505.97301	-72.180401	578.15341	299.77994	19710.193	7259.3462	505.97301
	15350	506.16455	-42.797433	548.96198	284.64381	19584.373	7259.3462	506.16455
	15360	506.03607	-50.244777	556.28085	288.43873	19703.808	7259.3462	506.03607
	15370	505.81662	-51.561461	557.37808	289.00766	19677.056	7259.3462	505.81662
	15380	506.28976	-53.652325	559.94208	290.33713	19404.204	7259.3462	506.28976
	15390	506.13339	-79.541153	585.67455	303.67974	19165.326	7259.3462	506.13339
	15400	505.57037	-82.276389	587.84676	304.80606	19321.164	7259.3462	505.57037
	15410	506.03866	-77.004612	583.04327	302.31539	19986.765	7259.3462	506.03866
	15420	505.80469	-67.138273	572.94296	297.07825	20453.861	7259.3462	505.80469
	15430	506.30578	-50.54149	556.84727	288.73243	20707.405	7259.3462	506.30578
	15440	506.08927	-59.115224	565.20449	293.06576	20659.539	7259.3462	506.08927
	15450	505.81175	-83.388145	589.19989	305.50768	20451.658	7259.3462	505.81175
	15460	505.81034	-77.104692	582.91504	302.2489	20496.718	7259.3462	505.81034
	15470	505.39688	-77.529801	582.92668	302.25494	20910.364	7259.3462	505.39688
	15480	506.44827	-71.343503	577.79178	299.59243	20177.699	7259.3462	506.44827
	15490	506.0114	-59.244979	565.25637	293.09266	20010.029	7259.3462	506.0114
	15500	505.69077	-88.317203	594.00797	308.00073	19963.098	7259.3462	505.69077
	15510	505.89607	-78.209944	584.10601	302.86644	20112.587	7259.3462	505.89607
	15520	506.41871	-59.651182	566.0699	293.51448	20030.82	7259.3462	506.41871
	15530	505.95656	-87.672449	593.62901	307.80424	20168.981	7259.3462	505.95656
	15540	505.60688	-78.57528	584.18216	302.90592	20010.008	7259.3462	505.60688
	15550	506.28389	-68.602661	574.88655	298.08603	19937.69	7259.3462	506.28389
	15560	505.88548	-70.242575	576.12805	298.72976	20014.625	7259.3462	505.88548
	15570	506.25025	-56.397541	562.64779	291.74007	20461.67	7259.3462	506.25025
	15580	505.5024	-62.350632	567.85304	294.43906	20240.012	7259.3462	505.5024
	15590	506.15007	-58.940217	565.09029	293.00654	19768.627	7259.3462	506.15007
	15600	505.98755	-57.321386	563.30894	292.08289	19978.002	7259.3462	505.98755
	15610	505.62306	-69.373705	574.99677	298.14318	20168.6	7259.3462	505.62306
	15620	506.78652	-54.469633	561.25615	291.01849	19959.011	7259.3462	506.78652
	15630	505.17465	-80.733603	585.90826	303.80092	19907.073	7259.3462	505.17465
	15640	506.14729	-83.49913	589.64642	305.73921	19923.605	7259.3462	506.14729
	15650	505.85161	-72.333164	578.18477	299.7962	20222.547	7259.3462	505.85161
	15660	506.11959	-74.352759	580.47235	300.98234	20137.134	7259.3462	506.11959
	15670	506.14724	-71.464375	577.61162	299.49901	20376.456	7259.3462	506.14724
	15680	505.65216	-72.321542	577.97371	299.68676	20283.724	7259.3462	505.65216
	15690	506.39252	-85.923571	592.31609	307.12347	20439.535	7259.3462	506.39252
	15700	505.87079	-79.777533	585.64832	303.66614	20910.512	7259.3462	505.87079
	15710	505.59033	-87.713684	593.30401	307.63572	21320.722	7259.3462	505.59033
	15720	506.40399	-66.474486	572.87848	297.04482	21178.353	7259.3462	506.40399
	15730	506.11977	-58.956736	565.07651	292.9994	20765.238	7259.3462	506.11977
	15740	506.29723	-55.519516	561.81674	291.30917	20489.221	7259.3462	506.29723
	15750	505.73598	-73.079154	578.81514	300.12305	20775.994	7259.3462	505.73598
	15760	505.97	-65.36674	571.33674	296.24541	20496.329	7259.3462	505.97
	15770	506.04265	-62.074399	568.11705	294.57596	20054.032	7259.3462	506.04265
	15780	505.89857	-70.702947	576.60152	298.97526	19492.406	7259.3462	505.89857
	15790	505.776	-56.414742	562.19074	291.50309	19267.838	7259.3462	505.776
	15800	506.14215	-55.160496	561.30264	291.0426	19185.551	7259.3462	506.14215
	15810	505.88522	-57.995309	563.88052	292.37926	19129.639	7259.3462	505.88522
	15820	506.3821	-42.2664	548.6485	284.48126	18612.431	7259.3462	506.3821
	15830	505.91005	-76.932256	582.84231	302.21119	18564.333	7259.3462	505.91005
	15840	505.68978	-72.836306	578.52608	299.97317	18586.221	7259.3462	505.68978
	15850	505.92058	-69.674519	575.5951	298.45342	18853.256	7259.3462	505.92058
	15860	505.98248	-52.314866	558.29734	289.48431	18671.674	7259.3462	505.98248
	15870	506.71673	-36.221649	542.93837	281.52049	18485.296	7259.3462	506.71673
	15880	505.59238	-69.837248	575.42963	298.36762	18173.582	7259.3462	505.59238
	15890	505.74572	-64.539431	570.28515	295.70015	18202.007	7259.3462	505.74572
	15900	506.14491	-67.225789	573.3707	297.30004	18490.415	7259.3462	506.14491
	15910	505.92368	-61.615087	567.53876	294.27611	18734.951	7259.3462	505.92368
	15920	506.20122	-65.272157	571.47337	296.31625	19363.481	7259.3462	506.20122
	15930	505.72723	-67.784348	573.51158	297.37309	19309.466	7259.3462	505.72723
	15940	506.61412	-49.307505	555.92163	288.25247	19804.719	7259.3462	506.61412
	15950	505.77164	-78.061782	583.83342	302.7251	20526.355	7259.3462	505.77164
	15960	505.7325	-82.709316	588.44181	305.11461	20828.486	7259.3462	505.7325
	15970	505.92578	-82.647762	588.57354	305.18291	20710.792	7259.3462	505.92578
	15980	505.64727	-71.646543	577.29381	299.33423	20996.286	7259.3462	505.64727
	15990	506.18971	-55.037771	561.22749	291.00363	21360.781	7259.3462	506.18971
	16000	505.62229	-68.822361	574.44465	297.8569	21486.686	7259.3462	505.62229
	16010	506.34451	-57.316599	563.66111	292.26549	21286.144	7259.3462	506.34451
	16020	505.59661	-78.665855	584.26247	302.94756	20933.848	7259.3462	505.59661
	16030	506.08458	-64.943162	571.02774	296.08519	20255.033	7259.3462	506.08458
	16040	506.04507	-62.387193	568.43227	294.7394	20473.728	7259.3462	506.04507
	16050	506.02878	-65.399571	571.42836	296.29291	20097.266	7259.3462	506.02878
	16060	506.09696	-58.053382	564.15034	292.51917	19541.441	7259.3462	506.09696
	16070	505.99807	-75.476109	581.47418	301.5018	19024.186	7259.3462	505.99807
	16080	506.12395	-72.375039	578.49899	299.95913	18813.055	7259.3462	506.12395
	16090	505.64557	-71.828008	577.47357	299.42743	19339.953	7259.3462	505.64557
	16100	506.19688	-60.683238	566.88012	293.93459	19365.947	7259.3462	506.19688
	16110	506.12327	-39.511165	545.63444	282.91843	19447.034	7259.3462	506.12327
	16120	506.47032	-46.559951	553.03028	286.75327	19618.869	7259.3462	506.47032
	16130	505.66147	-63.333307	568.99478	295.03107	20149.913	7259.3462	505.66147
	16140	505.92671	-65.19323	571.11994	296.13299	20073.324	7259.3462	505.92671
	16150	506.04056	-80.151593	586.19215	303.94813	19874.492	7259.3462	506.04056
	16160	505.83191	-64.891711	570.72363	295.9275	19689.676	7259.3462	505.83191
	16170	506.00466	-65.572188	571.57684	296.3699	19631.578	7259.3462	506.00466
	16180	506.36082	-50.389766	556.75058	288.6823	19561.07	7259.3462	506.36082
	16190	506.6298	-39.032381	545.66218	282.93282	19462.08	7259.3462	506.6298
	16200	505.62224	-82.787789	588.41003	305.09812	19233.382	7259.3462	505.62224
	16210	505.92582	-76.72617	582.65199	302.11251	18937.29	7259.3462	505.92582
	16220	505.97075	-83.38608	589.35683	305.58905	18581.373	7259.3462	505.97075
	16230	506.26686	-71.9964	578.26326	299.8369	18432.593	7259.3462	506.26686
	16240	505.86458	-72.121635	577.98622	299.69325	18627.725	7259.3462	505.86458
	16250	506.28523	-45.647887	551.93312	286.18438	18739.702	7259.3462	506.28523
	16260	506.22778	-51.284046	557.51182	289.07701	18723.927	7259.3462	506.22778
	16270	505.85501	-84.131149	589.98616	305.91537	18010.141	7259.3462	505.85501
	16280	505.70597	-81.64795	587.35392	304.55052	18302.16	7259.3462	505.70597
	16290	506.21953	-67.382537	573.60207	297.42001	18472.808	7259.3462	506.21953
	16300	506.11965	-54.331161	560.45081	290.60091	18913.16	7259.3462	506.11965
	16310	505.92609	-57.525239	563.45133	292.15672	19245.39	7259.3462	505.92609
	16320	506.2113	-53.320739	559.53204	290.12452	19243.213	7259.3462	506.2113
	16330	506.09739	-54.249177	560.34657	290.54686	20011.731	7259.3462	506.09739
	16340	506.0111	-60.360177	566.37128	293.67075	19830.101	7259.3462	506.0111
	16350	505.47498	-72.519548	577.99453	299.69756	19457.33	7259.3462	505.47498
	16360	506.52179	-59.273966	565.79575	293.37233	19227.376	7259.3462	506.52179
	16370	506.42423	-44.549802	550.97403	285.68708	19171.426	7259.3462	506.42423
	16380	505.60703	-87.896082	593.50312	307.73896	19585.161	7259.3462	505.60703
	16390	505.82733	-95.338917	601.16625	311.71239	19456.463	7259.3462	505.82733
	16400	506.14531	-72.19623	578.34154	299.87748	19232.692	7259.3462	506.14531
	16410	506.09075	-78.729361	584.82011	303.23671	19373.214	7259.3462	506.09075
	16420	506.13413	-59.663408	565.79754	293.37326	19419.255	7259.3462	506.13413
	16430	506.26052	-61.880457	568.14098	294.58836	19905.061	7259.3462	506.26052
	16440	506.15673	-79.342844	585.49957	303.58902	20135.813	7259.3462	506.15673
	16450	505.647	-93.715172	599.36218	310.77695	20218.751	7259.3462	505.647
	16460	505.84081	-97.962248	603.80306	313.07961	20124.321	7259.3462	505.84081
	16470	506.22568	-70.255905	576.48158	298.91307	19985.508	7259.3462	506.22568
	16480	506.05442	-77.328472	583.38289	302.49149	20058.418	7259.3462	506.05442
	16490	506.34326	-78.87172	585.21498	303.44145	19497.033	7259.3462	506.34326
	16500	506.12006	-77.844482	583.96455	302.79309	19452.802	7259.3462	506.12006
	16510	506.03498	-90.280658	596.31564	309.19728	19912.481	7259.3462	506.03498
	16520	505.8128	-86.752909	592.56571	307.2529	19589.128	7259.3462	505.8128
	16530	505.65713	-88.388516	594.04565	308.02026	19775.629	7259.3462	505.65713
	16540	506.36417	-72.331103	578.69527	300.0609	19678.739	7259.3462	506.36417
	16550	506.02411	-67.241651	573.26576	297.24563	19633.161	7259.3462	506.02411
	16560	505.85804	-71.342673	577.20072	299.28595	19660.985	7259.3462	505.85804
	16570	506.27102	-64.940438	571.21145	296.18044	19578.51	7259.3462	506.27102
	16580	505.99074	-75.443088	581.43383	301.48088	19801.223	7259.3462	505.99074
	16590	506.04282	-78.565907	584.60873	303.1271	19541.482	7259.3462	506.04282
	16600	505.77467	-91.378525	597.1532	309.63157	19352.396	7259.3462	505.77467
	16610	506.00406	-77.993589	583.99765	302.81025	19634.444	7259.3462	506.00406
	16620	506.37489	-54.785651	561.16054	290.96892	19926.304	7259.3462	506.37489
	16630	506.05825	-70.96983	577.02808	299.19644	20330.442	7259.3462	506.05825
	16640	505.67117	-67.710045	573.38121	297.30549	20623.523	7259.3462	505.67117
	16650	506.18038	-58.544826	564.7252	292.81724	20420.787	7259.3462	506.18038
	16660	506.12106	-60.187208	566.30827	293.63808	20290.201	7259.3462	506.12106
	16670	505.89434	-58.357446	564.25179	292.57177	20020.817	7259.3462	505.89434
	16680	506.17382	-64.764954	570.93877	296.03906	20062.621	7259.3462	506.17382
	16690	505.77526	-70.95581	576.73107	299.04244	19991.315	7259.3462	505.77526
	16700	506.19757	-64.820047	571.01762	296.07994	19939.24	7259.3462	506.19757
	16710	506.02488	-64.273548	570.29843	295.70703	19877.559	7259.3462	506.02488
	16720	505.98588	-65.686247	571.67213	296.41931	19709.323	7259.3462	505.98588
	16730	506.41755	-69.793122	576.21067	298.7726	19943.355	7259.3462	506.41755
	16740	505.50695	-76.856615	582.36356	301.96296	19898.971	7259.3462	505.50695
	16750	505.98945	-81.224704	587.21415	304.47805	19497.618	7259.3462	505.98945
	16760	505.9996	-70.178967	576.17856	298.75595	19386.922	7259.3462	505.9996
	16770	506.05244	-55.643715	561.69616	291.24664	19271.288	7259.3462	506.05244
	16780	506.30304	-55.716069	562.01911	291.4141	19284.429	7259.3462	506.30304
	16790	505.9158	-55.900241	561.81605	291.3088	19263.026	7259.3462	505.9158
	16800	506.40022	-62.667706	569.06793	295.069	19068.843	7259.3462	506.40022
	16810	505.55337	-80.515834	586.0692	303.88438	19064.048	7259.3462	505.55337
	16820	505.83944	-71.399998	577.23944	299.30603	18871.04	7259.3462	505.83944
	16830	506.63059	-55.218881	561.84947	291.32614	18540.515	7259.3462	506.63059
	16840	505.8208	-64.62586	570.44666	295.78389	18529.542	7259.3462	505.8208
	16850	506.26107	-56.503457	562.76453	291.8006	18404.152	7259.3462	506.26107
	16860	505.69753	-53.831045	559.52857	290.12272	18658.072	7259.3462	505.69753
	16870	506.46264	-34.493106	540.95575	280.49247	18477.984	7259.3462	506.46264
	16880	506.29825	-34.440827	540.73908	280.38013	18108.363	7259.3462	506.29825
	16890	505.51191	-61.523165	567.03507	294.01494	17810.92	7259.3462	505.51191
	16900	506.46169	-50.421251	556.88295	288.75093	17795.204	7259.3462	506.46169
	16910	505.97756	-55.573029	561.55059	291.17116	18041.783	7259.3462	505.97756
	16920	506.06682	-69.342708	575.40953	298.3572	18424.068	7259.3462	506.06682
	16930	505.67759	-66.396999	572.07459	296.62799	18670.951	7259.3462	505.67759
	16940	506.12235	-58.400603	564.52296	292.71237	19301.893	7259.3462	506.12235
	16950	506.35565	-44.822111	551.17776	285.79272	19868.366	7259.3462	506.35565
	16960	505.86401	-50.412371	556.27638	288.43642	20717.043	7259.3462	505.86401
	16970	506.53862	-43.061178	549.59979	284.97452	20932.51	7259.3462	506.53862
	16980	505.90511	-58.297805	564.20291	292.54643	21172.801	7259.3462	505.90511
	16990	505.74173	-72.69896	578.44069	299.92889	20801.009	7259.3462	505.74173
	17000	505.98156	-80.459626	586.44119	304.07726	20799.06	7259.3462	505.98156
	17010	506.23395	-64.551607	570.78556	295.95961	20765.072	7259.3462	506.23395
	17020	506.10275	-75.064295	581.16704	301.34254	20501.083	7259.3462	506.10275
	17030	506.07293	-76.357163	582.4301	301.99745	20140.281	7259.3462	506.07293
	17040	506.37028	-72.05334	578.42362	299.92005	19765.658	7259.3462	506.37028
	17050	506.00572	-97.386645	603.39237	312.86666	19829.623	7259.3462	506.00572
	17060	505.85881	-80.090458	585.94926	303.82219	19993.329	7259.3462	505.85881
	17070	505.9044	-70.697896	576.6023	298.97566	20151.49	7259.3462	505.9044
	17080	506.20799	-62.241281	568.44927	294.74822	20112.622	7259.3462	506.20799
	17090	506.05654	-50.456079	556.51262	288.55891	20104.445	7259.3462	506.05654
	17100	505.74284	-66.896032	572.63887	296.92058	19988.726	7259.3462	505.74284
	17110	506.14841	-55.572246	561.72066	291.25934	19978.868	7259.3462	506.14841
	17120	506.53563	-45.839523	552.37515	286.41358	19050.413	7259.3462	506.53563
	17130	505.69643	-79.591073	585.28751	303.47906	18917.865	7259.3462	505.69643
	17140	505.8786	-88.777768	594.65637	308.33693	18671.774	7259.3462	505.8786
	17150	505.99322	-72.467574	578.46079	299.93932	18493.443	7259.3462	505.99322
	17160	506.26333	-68.122725	574.38605	297.82651	18694.697	7259.3462	506.26333
	17170	505.74912	-76.463576	582.2127	301.88473	18591.6	7259.3462	505.74912
	17180	505.61797	-71.74274	577.36071	299.36891	18257.885	7259.3462	505.61797
	17190	506.4741	-57.627485	564.10158	292.49388	17936.278	7259.3462	506.4741
	17200	506.44982	-45.455381	551.9052	286.1699	18114.262	7259.3462	506.44982
	17210	506.07948	-69.226334	575.30581	298.30342	18347.76	7259.3462	506.07948
	17220	505.54283	-86.0334	591.57623	306.73984	18645.023	7259.3462	505.54283
	17230	505.86112	-59.597282	565.4584	293.19741	18940.333	7259.3462	505.86112
	17240	506.21958	-62.799764	569.01934	295.04381	18857.044	7259.3462	506.21958
	17250	506.05963	-62.630126	568.68976	294.87291	18627.216	7259.3462	506.05963
	17260	505.98024	-72.814684	578.79492	300.11257	18524.593	7259.3462	505.98024
	17270	505.90031	-87.659009	593.55931	307.7681	18727.268	7259.3462	505.90031
	17280	506.09036	-64.544729	570.63509	295.88159	19108.815	7259.3462	506.09036
	17290	506.15296	-64.563058	570.71602	295.92356	19437.264	7259.3462	506.15296
	17300	506.01788	-79.488644	585.50653	303.59262	19272.918	7259.3462	506.01788
	17310	505.90966	-70.338316	576.24797	298.79194	19209.63	7259.3462	505.90966
	17320	505.73226	-82.395677	588.12794	304.95186	19501.354	7259.3462	505.73226
	17330	506.45468	-57.897789	564.35247	292.62397	19398.172	7259.3462	506.45468
	17340	506.29382	-43.963377	550.2572	285.31539	18826.438	7259.3462	506.29382
	17350	505.81872	-85.771915	591.59064	306.74731	18779.541	7259.3462	505.81872
	17360	505.78406	-69.652343	575.43641	298.37114	18820.944	7259.3462	505.78406
	17370	506.11824	-57.658243	563.77648	292.32532	18615.529	7259.3462	506.11824
	17380	506.26578	-58.053284	564.31907	292.60665	18570.204	7259.3462	506.26578
	17390	505.89673	-53.806561	559.70329	290.21332	18378.881	7259.3462	505.89673
	17400	506.06198	-76.369557	582.43153	301.9982	18444.166	7259.3462	506.06198
	17410	505.87154	-76.556534	582.42807	301.9964	18732.826	7259.3462	505.87154
	17420	506.18896	-74.329569	580.51853	301.00628	18755.541	7259.3462	506.18896
	17430	506.0528	-81.268621	587.32142	304.53367	18842.039	7259.3462	506.0528
	17440	505.97924	-80.000017	585.97926	303.83774	19086.259	7259.3462	505.97924
	17450	505.73	-85.970575	591.70057	306.80431	19603.295	7259.3462	505.73
	17460	506.16851	-71.17434	577.34285	299.35965	19901.103	7259.3462	506.16851
	17470	505.65528	-84.099664	589.75494	305.79548	20250.205	7259.3462	505.65528
	17480	506.12181	-73.190718	579.31253	300.38095	20099.431	7259.3462	506.12181
	17490	505.76381	-82.41754	588.18135	304.97955	19878.656	7259.3462	505.76381
	17500	506.53297	-64.475893	571.00887	296.0754	19799.127	7259.3462	506.53297
	17510	506.13638	-81.085029	587.22141	304.48181	19795.65	7259.3462	506.13638
	17520	505.83224	-84.546412	590.37865	306.11888	20053.79	7259.3462	505.83224
	17530	506.15372	-85.488053	591.64177	306.77383	20234.443	7259.3462	506.15372
	17540	504.89956	-108.72429	613.62385	318.17182	20474.176	7259.3462	504.89956
	17550	506.73021	-61.035788	567.766	294.39393	20361.844	7259.3462	506.73021
	17560	505.67162	-69.919191	575.59081	298.4512	20187.962	7259.3462	505.67162
	17570	506.27317	-57.781433	564.05461	292.46953	19887.496	7259.3462	506.27317
	17580	506.01265	-77.106098	583.11875	302.35453	19751.845	7259.3462	506.01265
	17590	505.96356	-62.865235	568.82879	294.945	19574.626	7259.3462	505.96356
	17600	506.27051	-74.134726	580.40524	300.94754	19541.246	7259.3462	506.27051
	17610	505.24857	-101.5051	606.75367	314.60953	19471.839	7259.3462	505.24857
	17620	506.27708	-62.49324	568.77032	294.91469	19368.994	7259.3462	506.27708
	17630	506.11959	-60.713361	566.83295	293.91014	19738.897	7259.3462	506.11959
	17640	505.90506	-70.788553	576.69361	299.02301	19699.187	7259.3462	505.90506
	17650	505.74268	-67.000036	572.74271	296.97442	19544.298	7259.3462	505.74268
	17660	506.22536	-55.326134	561.5515	291.17163	19286.426	7259.3462	506.22536
	17670	505.68989	-72.165737	577.85563	299.62553	19202.447	7259.3462	505.68989
	17680	506.27308	-57.137777	563.41085	292.13573	19076.278	7259.3462	506.27308
	17690	505.99359	-59.489588	565.48318	293.21026	19066.565	7259.3462	505.99359
	17700	505.9691	-69.29972	575.26882	298.28424	18899.749	7259.3462	505.9691
	17710	506.02214	-56.722794	562.74494	291.79045	18953.769	7259.3462	506.02214
	17720	505.59303	-72.454965	578.048	299.72528	19093.852	7259.3462	505.59303
	17730	506.4963	-50.029309	556.52561	288.56564	18803.042	7259.3462	506.4963
	17740	505.9583	-49.834678	555.79297	288.18577	18762.968	7259.3462	505.9583
	17750	506.10355	-50.575511	556.67906	288.64521	18792.218	7259.3462	506.10355
	17760	506.34148	-48.68125	555.02273	287.78638	18922.138	7259.3462	506.34148
	17770	505.70711	-69.653469	575.36058	298.33182	19578.748	7259.3462	505.70711
	17780	505.8408	-81.832441	587.67324	304.71609	19776.411	7259.3462	505.8408
	17790	505.99528	-64.173735	570.16902	295.63993	19754.29	7259.3462	505.99528
	17800	506.15667	-70.006642	576.16331	298.74804	19607.996	7259.3462	506.15667
	17810	506.58362	-54.799615	561.38324	291.08439	19480.829	7259.3462	506.58362
	17820	505.67729	-73.876437	579.55373	300.50602	19712.113	7259.3462	505.67729
	17830	506.34447	-59.695255	566.03973	293.49884	19603.555	7259.3462	506.34447
	17840	505.93437	-66.055643	571.99001	296.58414	19411.778	7259.3462	505.93437
	17850	505.75171	-66.341801	572.09351	296.6378	19406.209	7259.3462	505.75171
	17860	506.34515	-30.922131	537.26728	278.57996	19505.56	7259.3462	506.34515
	17870	505.69402	-54.37242	560.06644	290.40161	19412.733	7259.3462	505.69402
	17880	506.7316	-34.262659	540.99426	280.51244	18858.075	7259.3462	506.7316
	17890	505.5689	-58.369338	563.93824	292.40919	18935.343	7259.3462	505.5689
	17900	506.10935	-65.806287	571.91564	296.54557	18823.716	7259.3462	506.10935
	17910	506.40228	-39.008763	545.41105	282.8026	18343.89	7259.3462	506.40228
	17920	505.55094	-90.008433	595.55937	308.80515	18813.289	7259.3462	505.55094
	17930	506.10803	-69.900572	576.0086	298.66783	18544.69	7259.3462	506.10803
	17940	505.80115	-71.655286	577.45644	299.41855	18455.48	7259.3462	505.80115
	17950	506.38682	-71.930423	578.31724	299.86489	18658.127	7259.3462	506.38682
	17960	506.06269	-45.084324	551.14702	285.77678	18695.827	7259.3462	506.06269
	17970	506.01017	-71.725566	577.73573	299.56337	19368.702	7259.3462	506.01017
	17980	506.17884	-64.466123	570.64496	295.88671	19056.24	7259.3462	506.17884
	17990	505.89858	-72.137997	578.03658	299.71936	19198.701	7259.3462	505.89858
	18000	505.98423	-83.641162	589.62539	305.72831	19275.179	7259.3462	505.98423
	18010	506.09911	-47.036666	553.13578	286.80797	19044.806	7259.3462	506.09911
	18020	505.96353	-75.796646	581.76017	301.65009	19227.171	7259.3462	505.96353
	18030	506.10301	-55.512348	561.61536	291.20475	18695.139	7259.3462	506.10301
	18040	506.01153	-50.258913	556.27045	288.43334	18739.181	7259.3462	506.01153
	18050	506.03343	-69.251494	575.28493	298.29259	18789.043	7259.3462	506.03343
	18060	506.02638	-51.136625	557.16301	288.89614	18427.531	7259.3462	506.02638
	18070	505.7665	-71.477315	577.24382	299.3083	18479.981	7259.3462	505.7665
	18080	506.37216	-51.634362	558.00652	289.33352	18153.928	7259.3462	506.37216
	18090	505.77522	-64.791783	570.567	295.84629	18376.318	7259.3462	505.77522
	18100	506.04957	-73.003772	579.05334	300.24656	18787.078	7259.3462	506.04957
	18110	506.06666	-55.317519	561.38418	291.08488	18792.434	7259.3462	506.06666
	18120	506.09845	-76.969193	583.06764	302.32803	19405.154	7259.3462	506.09845
	18130	506.08254	-61.506525	567.58906	294.30219	19602.666	7259.3462	506.08254
	18140	505.79679	-65.448868	571.24566	296.19818	19780.395	7259.3462	505.79679
	18150	506.21662	-64.019088	570.23571	295.67451	20111.866	7259.3462	506.21662
	18160	506.05548	-53.997292	560.05278	290.39453	20230.051	7259.3462	506.05548
	18170	505.97252	-84.806501	590.77903	306.32648	20715.628	7259.3462	505.97252
	18180	505.8293	-81.851422	587.68072	304.71997	20248.223	7259.3462	505.8293
	18190	505.91188	-88.581692	594.49357	308.25252	19959.05	7259.3462	505.91188
	18200	505.92531	-88.827808	594.75312	308.3871	20016.352	7259.3462	505.92531
	18210	506.29743	-47.479339	553.77677	287.14034	19912.345	7259.3462	506.29743
	18220	506.16227	-74.607539	580.76981	301.13657	19562.257	7259.3462	506.16227
	18230	505.91158	-72.547954	578.45954	299.93867	19437.612	7259.3462	505.91158
	18240	506.07149	-72.995044	579.06654	300.2534	19293.797	7259.3462	506.07149
	18250	505.64134	-95.207618	600.84896	311.54787	19416.667	7259.3462	505.64134
	18260	505.97436	-76.416243	582.39061	301.97698	18846.351	7259.3462	505.97436
	18270	506.00709	-72.388033	578.39512	299.90527	18465.292	7259.3462	506.00709
	18280	506.36129	-51.397252	557.75854	289.20494	18358.995	7259.3462	506.36129
	18290	506.32536	-46.459666	552.78503	286.62611	18317.273	7259.3462	506.32536
	18300	505.69708	-80.282739	585.97982	303.83803	18703.839	7259.3462	505.69708
	18310	505.91638	-79.347858	585.26424	303.46699	18564.438	7259.3462	505.91638
	18320	505.64338	-76.499949	582.14333	301.84876	18704.937	7259.3462	505.64338
	18330	506.18265	-67.365915	573.54856	297.39226	18555.506	7259.3462	506.18265
	18340	506.29365	-50.341566	556.63522	288.62248	18256.71	7259.3462	506.29365
	18350	506.1858	-51.566413	557.75221	289.20165	18561.178	7259.3462	506.1858
	18360	506.55982	-47.32313	553.88295	287.19539	18497.052	7259.3462	506.55982
	18370	505.45662	-66.223484	571.6801	296.42344	18731.593	7259.3462	505.45662
	18380	505.92342	-69.215139	575.13856	298.2167	18829.08	7259.3462	505.92342
	18390	506.10653	-44.00803	550.11456	285.24144	18432.378	7259.3462	506.10653
	18400	506.3817	-43.60574	549.98744	285.17552	18311.091	7259.3462	506.3817
	18410	506.17252	-53.309972	559.48249	290.09883	18292.061	7259.3462	506.17252
	18420	505.97161	-47.722052	553.69366	287.09724	18056.816	7259.3462	505.97161
	18430	506.41	-45.235616	551.64562	286.03531	18216.639	7259.3462	506.41
	18440	505.60494	-64.611564	570.2165	295.66455	18623.81	7259.3462	505.60494
	18450	506.1511	-55.511535	561.66263	291.22926	18430.428	7259.3462	506.1511
	18460	505.68431	-70.631656	576.31597	298.8272	18194.52	7259.3462	505.68431
	18470	506.57968	-36.256249	542.83593	281.46737	17889.06	7259.3462	506.57968
	18480	506.26387	-64.650489	570.91435	296.02639	18383.14	7259.3462	506.26387
	18490	505.55072	-93.904478	599.45519	310.82518	18607.133	7259.3462	505.55072
	18500	505.87844	-78.363697	584.24214	302.93702	19008.546	7259.3462	505.87844
	18510	505.36415	-98.233341	603.59749	312.97302	19310.604	7259.3462	505.36415
	18520	506.40786	-48.016517	554.42438	287.47613	19203.761	7259.3462	506.40786
	18530	506.31252	-45.386937	551.69946	286.06322	19512.735	7259.3462	506.31252
	18540	506.05398	-55.534567	561.58855	291.19084	19402.126	7259.3462	506.05398
	18550	505.76984	-69.54896	575.3188	298.31016	19528.062	7259.3462	505.76984
	18560	505.98321	-95.032049	601.01526	311.6341	19688.236	7259.3462	505.98321
	18570	505.7785	-80.527486	586.30599	304.00715	19638.543	7259.3462	505.7785
	18580	505.85794	-79.085469	584.94341	303.30064	19986.645	7259.3462	505.85794
	18590	506.20739	-45.948423	552.15581	286.29985	19880.201	7259.3462	506.20739
	18600	506.59892	-35.851088	542.45001	281.26727	19655.201	7259.3462	506.59892
	18610	505.96428	-80.462529	586.42681	304.0698	19319.224	7259.3462	505.96428
	18620	505.79144	-68.529088	574.32053	297.79254	18957.247	7259.3462	505.79144
	18630	506.05346	-79.179603	585.23306	303.45083	18894.476	7259.3462	506.05346
	18640	505.6785	-67.412366	573.09086	297.15494	18913.962	7259.3462	505.6785
	18650	506.41558	-33.11142	539.527	279.75165	18552.986	7259.3462	506.41558
	18660	505.8524	-54.326914	560.17931	290.46014	18803.994	7259.3462	505.8524
	18670	506.49778	-29.135393	535.63317	277.73265	18629.561	7259.3462	506.49778
	18680	505.70828	-64.534818	570.2431	295.67834	19260.682	7259.3462	505.70828
	18690	505.7028	-66.512998	572.2158	296.70121	19360.682	7259.3462	505.7028
	18700	506.46897	-42.140937	548.60991	284.46126	18980.259	7259.3462	506.46897
	18710	506.01847	-62.910232	568.9287	294.99681	19074.687	7259.3462	506.01847
	18720	506.15216	-57.166904	563.31907	292.08814	19121.263	7259.3462	506.15216
	18730	505.63397	-85.409188	591.04315	306.46343	19234.4	7259.3462	505.63397
	18740	506.17478	-69.031398	575.20618	298.25176	19403.623	7259.3462	506.17478
	18750	505.92184	-87.098837	593.02068	307.48881	19456.405	7259.3462	505.92184
	18760	505.74836	-82.893927	588.64229	305.21855	19855.582	7259.3462	505.74836
	18770	506.12706	-48.340613	554.46767	287.49858	19777.164	7259.3462	506.12706
	18780	506.64816	-54.54666	561.19482	290.98669	19779.121	7259.3462	506.64816
	18790	505.8143	-70.954505	576.7688	299.062	19670.096	7259.3462	505.8143
	18800	505.77698	-83.481242	589.25823	305.53793	19753.554	7259.3462	505.77698
	18810	506.02847	-87.419686	593.44815	307.71046	19637.651	7259.3462	506.02847
	18820	505.52102	-80.157418	585.67844	303.68176	19456.761	7259.3462	505.52102
	18830	506.48378	-55.133789	561.61756	291.20589	19274.439	7259.3462	506.48378
	18840	506.05134	-54.250598	560.30193	290.52372	19270.603	7259.3462	506.05134
	18850	506.69216	-29.447945	536.14011	277.9955	19479.554	7259.3462	506.69216
	18860	505.60667	-58.300298	563.90697	292.39297	19940.822	7259.3462	505.60667
	18870	505.4398	-77.59041	583.03021	302.30862	20193.651	7259.3462	505.4398
	18880	506.12212	-65.801939	571.92406	296.54994	19791.394	7259.3462	506.12212
	18890	505.80246	-68.942539	574.745	298.01263	19626.715	7259.3462	505.80246
	18900	506.33891	-51.260952	557.59986	289.12266	19492.869	7259.3462	506.33891
	18910	505.99461	-44.855867	550.85048	285.62302	19417.207	7259.3462	505.99461
	18920	506.19806	-57.992941	564.191	292.54025	19389.651	7259.3462	506.19806
	18930	505.85707	-61.848987	567.70606	294.36285	19455.578	7259.3462	505.85707
	18940	505.67479	-67.867194	573.54199	297.38886	19726.072	7259.3462	505.67479
	18950	506.04497	-68.510074	574.55504	297.91414	20459.743	7259.3462	506.04497
	18960	505.68568	-67.94257	573.62825	297.43358	20080.307	7259.3462	505.68568
	18970	505.77312	-71.159594	576.93271	299.14699	19827.611	7259.3462	505.77312
	18980	506.4794	-64.298721	570.77812	295.95576	19842.587	7259.3462	506.4794
	18990	505.83951	-81.532847	587.37236	304.56008	20030.517	7259.3462	505.83951
	19000	505.58821	-85.05866	590.64687	306.25795	20100.98	7259.3462	505.58821
	19010	505.79586	-84.892299	590.68816	306.27936	20190.921	7259.3462	505.79586
	19020	505.79056	-69.868656	575.65921	298.48666	20096.982	7259.3462	505.79056
	19030	506.34192	-57.737917	564.07984	292.48261	20353.225	7259.3462	506.34192
	19040	505.64455	-81.840759	587.48531	304.61865	20165.194	7259.3462	505.64455
	19050	505.63185	-82.811705	588.44356	305.11551	19925.919	7259.3462	505.63185
	19060	506.4565	-47.794644	554.25115	287.38631	19704.93	7259.3462	506.4565
	19070	506.21434	-47.826203	554.04055	287.27711	20039.03	7259.3462	506.21434
	19080	505.71017	-60.889033	566.5992	293.78893	20329.776	7259.3462	505.71017
	19090	506.107	-58.324377	564.43138	292.66489	19886.762	7259.3462	506.107
	19100	505.82355	-73.858324	579.68188	300.57247	19569.437	7259.3462	505.82355
	19110	505.90757	-73.501956	579.40953	300.43125	19284.989	7259.3462	505.90757
	19120	505.56602	-82.560908	588.12693	304.95134	19002.63	7259.3462	505.56602
	19130	506.047	-69.799039	575.84604	298.58354	18572.57	7259.3462	506.047
	19140	506.25581	-60.534493	566.7903	293.88802	18354.385	7259.3462	506.25581
	19150	505.8916	-67.775414	573.66701	297.45368	18662.916	7259.3462	505.8916
	19160	506.08182	-74.850987	580.9328	301.22109	18839.964	7259.3462	506.08182
	19170	505.95416	-77.019076	582.97323	302.27908	19187.362	7259.3462	505.95416
	19180	505.57154	-89.024772	594.59631	308.30579	19631.916	7259.3462	505.57154
	19190	506.05128	-71.482616	577.5339	299.45871	19920.139	7259.3462	506.05128
	19200	506.06063	-60.002927	566.06355	293.51119	20350.62	7259.3462	506.06063
	19210	505.75515	-71.296847	577.052	299.20884	20153.202	7259.3462	505.75515
	19220	505.91173	-66.434671	572.3464	296.76893	19633.389	7259.3462	505.91173
	19230	506.00024	-66.762631	572.76288	296.98488	19312.488	7259.3462	506.00024
	19240	506.01786	-89.091157	595.10902	308.57164	19111.005	7259.3462	506.01786
	19250	505.6209	-92.777246	598.39815	310.27709	19345.511	7259.3462	505.6209
	19260	505.61708	-86.21384	591.83092	306.8719	19378.568	7259.3462	505.61708
	19270	506.28278	-64.485125	570.76791	295.95046	19445.792	7259.3462	506.28278
	19280	505.88786	-68.213774	574.10163	297.67904	19649.722	7259.3462	505.88786
	19290	505.99221	-63.999836	569.99204	295.54816	19812.012	7259.3462	505.99221
	19300	505.56689	-80.82521	586.3921	304.0518	19724.786	7259.3462	505.56689
	19310	506.02118	-71.636833	577.65802	299.52307	19259.301	7259.3462	506.02118
	19320	506.25017	-56.850898	563.10107	291.97511	18902.195	7259.3462	506.25017
	19330	505.86061	-74.553031	580.41364	300.9519	18792.811	7259.3462	505.86061
	19340	505.74347	-77.055101	582.79857	302.18851	18793.077	7259.3462	505.74347
	19350	505.94837	-58.352306	564.30067	292.59712	18755.908	7259.3462	505.94837
	19360	505.97858	-60.305524	566.28411	293.62555	18787.618	7259.3462	505.97858
	19370	506.23937	-45.380428	551.6198	286.02192	18566.861	7259.3462	506.23937
	19380	505.872	-60.899622	566.77162	293.87833	18791.21	7259.3462	505.872
	19390	505.57688	-78.720344	584.29722	302.96558	18796.803	7259.3462	505.57688
	19400	505.84561	-66.764259	572.60987	296.90554	18700.464	7259.3462	505.84561
	19410	506.2645	-53.254203	559.5187	290.1176	18664.934	7259.3462	506.2645
	19420	506.30512	-43.291819	549.59694	284.97304	18711.589	7259.3462	506.30512
	19430	505.49067	-79.762315	585.25299	303.46116	19133.425	7259.3462	505.49067
	19440	505.84816	-78.647979	584.49614	303.06872	19008.033	7259.3462	505.84816
	19450	506.07003	-70.052136	576.12217	298.72671	18899.187	7259.3462	506.07003
	19460	506.01615	-69.550795	575.56694	298.43882	19192.582	7259.3462	506.01615
	19470	505.83686	-61.488447	567.32531	294.16543	19259.675	7259.3462	505.83686
	19480	506.32385	-54.743027	561.06688	290.92035	19453.811	7259.3462	506.32385
	19490	505.78628	-67.563702	573.34998	297.2893	19800.132	7259.3462	505.78628
	19500	505.54414	-84.69901	590.24315	306.04862	19734.23	7259.3462	505.54414
	19510	505.52244	-99.693534	605.21598	313.81222	19549.907	7259.3462	505.52244
	19520	506.11245	-53.562645	559.67509	290.19869	19531.15	7259.3462	506.11245
	19530	506.26305	-56.967496	563.23054	292.04224	19759.165	7259.3462	506.26305
	19540	505.77143	-67.685075	573.45651	297.34453	19711.966	7259.3462	505.77143
	19550	506.53286	-48.667906	555.20077	287.8787	19378.381	7259.3462	506.53286
	19560	505.57039	-99.009928	604.58032	313.48263	19736.463	7259.3462	505.57039
	19570	505.27264	-86.617461	591.8901	306.90259	19597.259	7259.3462	505.27264
	19580	506.0925	-77.483027	583.57553	302.59138	19188.765	7259.3462	506.0925
	19590	505.85998	-76.099716	581.95969	301.75354	19325.978	7259.3462	505.85998
	19600	506.64025	-45.66684	552.30709	286.37829	19083.324	7259.3462	506.64025
	19610	505.41845	-90.668309	596.08676	309.07861	19825.835	7259.3462	505.41845
	19620	506.19182	-71.457649	577.64947	299.51864	20102.302	7259.3462	506.19182
	19630	505.87995	-91.479297	597.35924	309.73841	20082.016	7259.3462	505.87995
	19640	505.23371	-107.08083	612.31455	317.49292	20315.31	7259.3462	505.23371
	19650	506.42236	-57.06049	563.48285	292.17307	19733.526	7259.3462	506.42236
	19660	506.05348	-80.68684	586.74032	304.23236	19653.524	7259.3462	506.05348
	19670	506.15085	-69.879849	576.0307	298.67929	19569.713	7259.3462	506.15085
	19680	505.91997	-76.00114	581.92111	301.73354	19382.337	7259.3462	505.91997
	19690	505.70105	-74.092927	579.79398	300.63059	19707.368	7259.3462	505.70105
	19700	506.42674	-41.059185	547.48592	283.87845	19799.291	7259.3462	506.42674
	19710	505.4921	-73.671603	579.1637	300.30379	19357.982	7259.3462	505.4921
	19720	505.98648	-63.08958	569.07606	295.07321	18567.222	7259.3462	505.98648
	19730	505.94172	-63.135241	569.07696	295.07368	18506.513	7259.3462	505.94172
	19740	505.72274	-58.801435	564.52418	292.71301	18698.843	7259.3462	505.72274
	19750	506.11632	-41.362741	547.47906	283.87489	18470.499	7259.3462	506.11632
	19760	505.95976	-55.80217	561.76193	291.28075	18297.565	7259.3462	505.95976
	19770	506.10463	-56.409845	562.51447	291.67095	18402.702	7259.3462	506.10463
	19780	505.1307	-93.243481	598.37419	310.26467	18993.719	7259.3462	505.1307
	19790	506.10434	-63.052259	569.1566	295.11498	19160.176	7259.3462	506.10434
	19800	506.35725	-63.148704	569.50595	295.29612	19212.193	7259.3462	506.35725
	19810	505.52948	-78.261175	583.79066	302.70292	19895.239	7259.3462	505.52948
	19820	506.02284	-50.848789	556.87163	288.74506	19892.841	7259.3462	506.02284
	19830	505.83463	-74.184936	580.01957	300.74756	19728.475	7259.3462	505.83463
	19840	506.47651	-50.547021	557.02353	288.82382	19540.843	7259.3462	506.47651
	19850	505.74945	-73.850025	579.59948	300.52974	19397.64	7259.3462	505.74945
	19860	505.79199	-76.367349	582.15934	301.85706	19253.414	7259.3462	505.79199
	19870	506.06744	-62.456858	568.5243	294.78712	18995.172	7259.3462	506.06744
	19880	506.01531	-96.076119	602.09143	312.19211	19294.76	7259.3462	506.01531
	19890	505.47954	-90.12623	595.60577	308.82921	19587.494	7259.3462	505.47954
	19900	506.11735	-73.624559	579.74191	300.6036	19276.365	7259.3462	506.11735
	19910	506.11498	-71.086536	577.20151	299.28637	19699.21	7259.3462	506.11498
	19920	505.98954	-55.1111	561.10064	290.93786	19878.509	7259.3462	505.98954
	19930	506.22923	-66.515637	572.74487	296.97554	20286.755	7259.3462	506.22923
	19940	505.98011	-73.265441	579.24555	300.34623	20248.257	7259.3462	505.98011
	19950	505.68489	-89.666862	595.35175	308.69749	20240.525	7259.3462	505.68489
	19960	505.58338	-84.261263	589.84465	305.84199	20422.354	7259.3462	505.58338
	19970	506.15517	-74.752676	580.90785	301.20815	19574.626	7259.3462	506.15517
	19980	506.58185	-74.250275	580.83213	301.16889	18915.199	7259.3462	506.58185
	19990	505.83854	-77.585342	583.42388	302.51274	19041.735	7259.3462	505.83854
	20000	505.86383	-80.590413	586.45424	304.08402	19404.863	7259.3462	505.86383
	20010	506.50007	-61.287029	567.7871	294.40487	19313.324	7259.3462	506.50007
	20020	505.40138	-90.225712	595.62709	308.84026	19801.622	7259.3462	505.40138
	20030	505.70627	-81.568989	587.27526	304.50973	19869.509	7259.3462	505.70627
	20040	506.28243	-62.776237	569.05866	295.06419	19600.528	7259.3462	506.28243
	20050	505.96348	-80.098427	586.0619	303.88059	19798.469	7259.3462	505.96348
	20060	506.24976	-53.1748	559.42456	290.06879	19624.501	7259.3462	506.24976
	20070	505.91413	-84.161266	590.07539	305.96164	20166.568	7259.3462	505.91413
	20080	506.03537	-85.982038	592.01741	306.9686	20536.884	7259.3462	506.03537
	20090	505.86193	-82.831427	588.69335	305.24503	20409.698	7259.3462	505.86193
	20100	505.4549	-107.80561	613.26052	317.98342	20479.275	7259.3462	505.4549
	20110	506.67633	-51.123146	557.79948	289.22616	19950.606	7259.3462	506.67633
	20120	505.79243	-88.720689	594.51312	308.26266	19956.802	7259.3462	505.79243
	20130	505.98313	-76.479428	582.46256	302.01428	19697.971	7259.3462	505.98313
	20140	505.91191	-68.553191	574.4651	297.8675	19450.196	7259.3462	505.91191
	20150	505.8848	-86.930282	592.81509	307.3822	19578.768	7259.3462	505.8848
	20160	506.50502	-41.057826	547.56285	283.91834	19536.91	7259.3462	506.50502
	20170	505.72192	-74.86539	580.5873	301.04194	19798.279	7259.3462	505.72192
	20180	506.21524	-59.736536	565.95178	293.45323	19814.58	7259.3462	506.21524
	20190	505.98027	-53.886939	559.86721	290.29831	19698.196	7259.3462	505.98027
	20200	505.76596	-91.520252	597.28621	309.70054	19711.897	7259.3462	505.76596
	20210	506.17851	-65.880648	572.05916	296.61999	19566.1	7259.3462	506.17851
	20220	505.72277	-86.773492	592.49626	307.21689	19943.174	7259.3462	505.72277
	20230	506.2993	-56.816188	563.11549	291.98258	19721.538	7259.3462	506.2993
	20240	506.21983	-46.52777	552.7476	286.6067	19828.95	7259.3462	506.21983
	20250	506.01991	-88.15788	594.17779	308.08878	19826.853	7259.3462	506.01991
	20260	505.64011	-87.250247	592.89036	307.42123	19030.942	7259.3462	505.64011
	20270	505.81488	-91.329646	597.14452	309.62707	18828.889	7259.3462	505.81488
	20280	506.28205	-68.24892	574.53097	297.90166	18990.874	7259.3462	506.28205
	20290	506.18165	-53.759296	559.94094	290.33654	18906.481	7259.3462	506.18165
	20300	505.98948	-66.598053	572.58754	296.89396	18782.694	7259.3462	505.98948
	20310	506.02267	-60.897133	566.91981	293.95517	18627.657	7259.3462	506.02267
	20320	505.7656	-78.87098	584.63658	303.14155	18859.345	7259.3462	505.7656
	20330	506.0767	-73.959898	580.03659	300.75639	18814.284	7259.3462	506.0767
	20340	505.78365	-81.665999	587.44965	304.60016	18666.087	7259.3462	505.78365
	20350	506.29189	-67.43454	573.72643	297.48449	18710.654	7259.3462	506.29189
	20360	506.08277	-59.496426	565.57919	293.26005	19076.611	7259.3462	506.08277
	20370	505.99792	-73.06534	579.06326	300.25171	19549.495	7259.3462	505.99792
	20380	506.00658	-69.213362	575.21994	298.25889	19650.306	7259.3462	506.00658
	20390	505.64573	-82.299905	587.94564	304.85733	19604.743	7259.3462	505.64573
	20400	505.93333	-80.944494	586.87782	304.30366	19434.457	7259.3462	505.93333
	20410	506.32736	-47.887715	554.21507	287.3676	19512.709	7259.3462	506.32736
	20420	506.20284	-59.192423	565.39526	293.16468	19754.323	7259.3462	506.20284
	20430	505.80492	-68.983504	574.78842	298.03515	19895.148	7259.3462	505.80492
	20440	505.54968	-83.27609	588.82577	305.31369	19861.969	7259.3462	505.54968
	20450	506.15781	-72.291667	578.44948	299.93345	19576.88	7259.3462	506.15781
	20460	506.4291	-48.785496	555.2146	287.88587	19591.923	7259.3462	506.4291
	20470	505.97083	-65.049135	571.01996	296.08115	19460.378	7259.3462	505.97083
	20480	505.79802	-61.08502	566.88304	293.93611	19176.364	7259.3462	505.79802
	20490	505.92205	-71.083808	577.00586	299.18492	18844.568	7259.3462	505.92205
	20500	506.03012	-75.313941	581.34407	301.43433	18805.164	7259.3462	506.03012
	20510	505.95054	-63.175608	569.12615	295.09919	18925.276	7259.3462	505.95054
	20520	505.79573	-64.042027	569.83775	295.46816	19117.191	7259.3462	505.79573
	20530	506.2134	-41.742328	547.95573	284.12205	19318.507	7259.3462	506.2134
	20540	506.10775	-53.839907	559.94766	290.34002	19556.517	7259.3462	506.10775
	20550	505.92429	-57.184575	563.10887	291.97915	19930.424	7259.3462	505.92429
	20560	505.76501	-58.737129	564.50213	292.70158	20209.392	7259.3462	505.76501
	20570	505.86437	-67.455132	573.31951	297.2735	20496.599	7259.3462	505.86437
	20580	506.19438	-41.367197	547.56158	283.91768	20362.79	7259.3462	506.19438
	20590	506.04751	-64.373022	570.42054	295.77034	19971.308	7259.3462	506.04751
	20600	506.45094	-47.874976	554.32592	287.42508	19847.443	7259.3462	506.45094
	20610	505.38625	-73.048979	578.43523	299.92606	20047.502	7259.3462	505.38625
	20620	505.80475	-73.581611	579.38636	300.41924	19546.492	7259.3462	505.80475
	20630	506.15542	-61.35841	567.51383	294.26318	19270.314	7259.3462	506.15542
	20640	506.1661	-59.220542	565.38664	293.1602	19206.075	7259.3462	506.1661
	20650	506.03604	-46.240785	552.27683	286.3626	18973.711	7259.3462	506.03604
	20660	505.7941	-68.871892	574.66599	297.97167	18925.761	7259.3462	505.7941
	20670	506.21168	-54.126233	560.33791	290.54237	18877.308	7259.3462	506.21168
	20680	505.94837	-70.02904	575.97741	298.65165	18670.812	7259.3462	505.94837
	20690	505.72794	-80.560509	586.28845	303.99806	18835.083	7259.3462	505.72794
	20700	505.98643	-49.114793	555.10122	287.82708	18643.131	7259.3462	505.98643
	20710	506.39328	-59.344751	565.73803	293.34241	18693.74	7259.3462	506.39328
	20720	505.93695	-58.443177	564.38013	292.63832	18858.114	7259.3462	505.93695
	20730	506.22433	-69.018103	575.24243	298.27056	18805.425	7259.3462	506.22433
	20740	505.52863	-89.285236	594.81387	308.4186	19253.477	7259.3462	505.52863
	20750	506.00799	-60.235828	566.24382	293.60466	19334.357	7259.3462	506.00799
	20760	505.99995	-83.35175	589.3517	305.58639	19413.482	7259.3462	505.99995
	20770	505.87818	-75.961367	581.83955	301.69125	19631.604	7259.3462	505.87818
	20780	506.49293	-57.319208	563.81213	292.3438	19648.686	7259.3462	506.49293
	20790	505.18449	-107.05641	612.24089	317.45473	20072.787	7259.3462	505.18449
	20800	506.28048	-58.704857	564.98534	292.95212	19727.958	7259.3462	506.28048
	20810	506.40042	-70.46783	576.86825	299.11356	19835.545	7259.3462	506.40042
	20820	506.00336	-83.08632	589.08968	305.45053	20162.85	7259.3462	506.00336
	20830	505.74429	-68.154337	573.89863	297.57378	20276.841	7259.3462	505.74429
	20840	505.60907	-96.328351	601.93743	312.11225	20775.095	7259.3462	505.60907
	20850	506.22729	-61.373952	567.60124	294.3085	20211.741	7259.3462	506.22729
	20860	506.29103	-70.714781	577.00582	299.18489	19803.569	7259.3462	506.29103
	20870	505.50307	-101.94323	607.4463	314.96868	19294.601	7259.3462	505.50307
	20880	506.29236	-68.883415	575.17577	298.23599	18769.865	7259.3462	506.29236
	20890	505.94883	-80.627308	586.57614	304.14723	19030.954	7259.3462	505.94883
	20900	506.14178	-67.268975	573.41076	297.32081	18783.992	7259.3462	506.14178
	20910	505.99988	-78.764987	584.76486	303.20806	18682.781	7259.3462	505.99988
	20920	505.55301	-95.075279	600.62829	311.43345	18646.368	7259.3462	505.55301
	20930	506.15045	-78.509398	584.65985	303.15361	18528.289	7259.3462	506.15045
	20940	505.98595	-73.30396	579.28991	300.36923	18713.869	7259.3462	505.98595
	20950	506.36857	-57.486775	563.85534	292.36621	18979.5	7259.3462	506.36857
	20960	506.43301	-59.17717	565.61018	293.27611	19358.199	7259.3462	506.43301
	20970	505.29265	-76.30571	581.59836	301.56619	19807.789	7259.3462	505.29265
	20980	506.03718	-88.474395	594.51157	308.26185	19937.337	7259.3462	506.03718
	20990	506.37992	-60.847941	567.22786	294.1149	19877.188	7259.3462	506.37992
	21000	505.59412	-88.605342	594.19946	308.10002	20002.242	7259.3462	505.59412
	21010	505.94427	-93.693552	599.63782	310.91988	19915.609	7259.3462	505.94427
	21020	505.99441	-70.212661	576.20708	298.77074	19456.613	7259.3462	505.99441
	21030	506.15139	-89.845106	595.9965	309.03181	19669.93	7259.3462	506.15139
	21040	505.83647	-75.452628	581.2891	301.40583	19763.986	7259.3462	505.83647
	21050	506.21101	-64.643135	570.85414	295.99517	19612.219	7259.3462	506.21101
	21060	506.08358	-73.180947	579.26452	300.35606	19837.032	7259.3462	506.08358
	21070	505.93747	-64.726012	570.66348	295.89631	20037.068	7259.3462	505.93747
	21080	505.89148	-90.654012	596.54549	309.31647	20129.317	7259.3462	505.89148
	21090	505.73501	-76.583573	582.31858	301.93963	20351.345	7259.3462	505.73501
	21100	506.32402	-64.145841	570.46986	295.79592	20293.649	7259.3462	506.32402
	21110	505.74429	-86.162091	591.90638	306.91103	19968.961	7259.3462	505.74429
	21120	506.11588	-57.286585	563.40247	292.13138	19883.92	7259.3462	506.11588
	21130	506.62187	-59.38531	566.00718	293.48196	19827.066	7259.3462	506.62187
	21140	505.58755	-85.984048	591.5716	306.73744	19798.464	7259.3462	505.58755
	21150	505.69279	-90.803012	596.4958	309.2907	19633.399	7259.3462	505.69279
	21160	506.04068	-76.656887	582.69757	302.13614	19511.579	7259.3462	506.04068
	21170	506.23536	-71.229887	577.46525	299.42312	19356.344	7259.3462	506.23536
	21180	506.03279	-72.029295	578.06209	299.73259	19657.011	7259.3462	506.03279
	21190	505.39577	-78.906137	584.30191	302.96801	19525.685	7259.3462	505.39577
	21200	506.6809	-49.879954	556.56086	288.58392	19348.094	7259.3462	506.6809
	21210	506.03019	-52.577993	558.60819	289.64549	19109.839	7259.3462	506.03019
	21220	505.64381	-74.670189	580.31399	300.90023	18982.225	7259.3462	505.64381
	21230	505.71074	-86.28153	591.99227	306.95556	19394.986	7259.3462	505.71074
	21240	505.93841	-69.354342	575.29275	298.29665	19249.017	7259.3462	505.93841
	21250	506.04787	-77.558307	583.60618	302.60727	19216.613	7259.3462	506.04787
	21260	505.94859	-74.991247	580.93984	301.22473	19692.82	7259.3462	505.94859
	21270	506.00933	-68.094318	574.10364	297.68008	19983.279	7259.3462	506.00933
	21280	506.52274	-78.930427	585.45317	303.56496	20225.292	7259.3462	506.52274
	21290	505.51224	-86.16154	591.67378	306.79042	20155.752	7259.3462	505.51224
	21300	506.17472	-88.737281	594.912	308.46948	19917.683	7259.3462	506.17472
	21310	505.99081	-84.277658	590.26847	306.06175	20191.68	7259.3462	505.99081
	21320	505.86559	-83.271742	589.13734	305.47524	20670.275	7259.3462	505.86559
	21330	506.03198	-67.994171	574.02615	297.6399	20868.475	7259.3462	506.03198
	21340	506.07615	-58.988057	565.06421	292.99302	20520.443	7259.3462	506.07615
	21350	506.47848	-66.311787	572.79026	296.99908	20351.53	7259.3462	506.47848
	21360	505.29066	-86.924041	592.2147	307.0709	20525.263	7259.3462	505.29066
	21370	506.21809	-77.243728	583.46181	302.53241	20050.162	7259.3462	506.21809
	21380	506.17877	-75.801235	581.98	301.76407	19837.143	7259.3462	506.17877
	21390	505.68089	-78.25577	583.93666	302.77862	19974.185	7259.3462	505.68089
	21400	505.86003	-76.37338	582.23341	301.89547	19934.681	7259.3462	505.86003
	21410	506.11053	-59.627605	565.73813	293.34246	19824.253	7259.3462	506.11053
	21420	506.31636	-64.227026	570.54339	295.83404	19630.105	7259.3462	506.31636
	21430	505.37547	-80.070283	585.44576	303.56111	19810.187	7259.3462	505.37547
	21440	505.94136	-73.970495	579.91186	300.69171	19700.252	7259.3462	505.94136
	21450	506.27864	-68.011911	574.29055	297.77699	19546.931	7259.3462	506.27864
	21460	506.06468	-66.476752	572.54143	296.87005	19540.822	7259.3462	506.06468
	21470	505.20098	-99.564336	604.76531	313.57855	19632.569	7259.3462	505.20098
	21480	506.05861	-65.831646	571.89026	296.53241	19542.711	7259.3462	506.05861
	21490	505.9446	-62.471101	568.41571	294.73081	19388.134	7259.3462	505.9446
	21500	506.22518	-43.410847	549.63603	284.99331	19442.165	7259.3462	506.22518
	21510	506.08753	-42.253041	548.34057	284.3216	19645.708	7259.3462	506.08753
	21520	505.95432	-66.782209	572.73653	296.97121	19903.465	7259.3462	505.95432
	21530	505.35791	-88.498744	593.85666	307.92227	19928.825	7259.3462	505.35791
	21540	505.77989	-90.904797	596.68468	309.38864	19894.53	7259.3462	505.77989
	21550	506.38962	-57.681398	564.07102	292.47804	20065.46	7259.3462	506.38962
	21560	505.98883	-75.593528	581.58236	301.55789	20216.292	7259.3462	505.98883
	21570	505.78562	-84.680435	590.46605	306.1642	20413.379	7259.3462	505.78562
	21580	505.33567	-87.098685	592.43435	307.18479	20808.722	7259.3462	505.33567
	21590	506.78061	-61.861979	568.64258	294.84845	20683.298	7259.3462	506.78061
	21600	505.52054	-76.22524	581.74578	301.64263	20570.315	7259.3462	505.52054
	21610	505.91799	-82.130507	588.0485	304.91067	20204.782	7259.3462	505.91799
	21620	506.02726	-73.395527	579.42278	300.43812	20209.782	7259.3462	506.02726
	21630	505.92727	-69.876825	575.8041	298.56179	20121.155	7259.3462	505.92727
	21640	506.14858	-90.876737	597.02532	309.56526	20101.235	7259.3462	506.14858
	21650	505.69018	-80.220703	585.91088	303.80229	20159.286	7259.3462	505.69018
	21660	506.06631	-87.202323	593.26863	307.61737	19848.561	7259.3462	506.06631
	21670	505.72534	-92.429086	598.15442	310.15072	19958.638	7259.3462	505.72534
	21680	506.28384	-64.126347	570.41019	295.76498	19568.465	7259.3462	506.28384
	21690	506.16598	-83.886314	590.05229	305.94966	19645.552	7259.3462	506.16598
	21700	505.81058	-77.688677	583.49925	302.55183	19833.023	7259.3462	505.81058
	21710	505.36932	-92.116088	597.4854	309.80382	19984.372	7259.3462	505.36932
	21720	506.2569	-83.279616	589.53651	305.68222	19926.32	7259.3462	506.2569
	21730	506.43235	-53.261936	559.69429	290.20865	19847.265	7259.3462	506.43235
	21740	505.87404	-86.064088	591.93812	306.92749	20245.781	7259.3462	505.87404
	21750	505.58065	-79.848093	585.42874	303.55229	19999.95	7259.3462	505.58065
	21760	506.4844	-57.367963	563.85236	292.36466	19946.227	7259.3462	506.4844
	21770	506.05548	-91.761863	597.81735	309.97594	20266.31	7259.3462	506.05548
	21780	505.7946	-87.191824	592.98643	307.47105	20052.611	7259.3462	505.7946
	21790	505.73826	-92.834601	598.57286	310.36768	20090.837	7259.3462	505.73826
	21800	506.21972	-70.06805	576.28777	298.81258	19767.923	7259.3462	506.21972
	21810	506.08692	-71.360045	577.44696	299.41364	19452.208	7259.3462	506.08692
	21820	505.99716	-75.379923	581.37708	301.45145	19210.652	7259.3462	505.99716
	21830	506.18033	-59.527421	565.70775	293.3267	18930.184	7259.3462	506.18033
	21840	505.93821	-67.299797	573.238	297.23124	18991.369	7259.3462	505.93821
	21850	505.90954	-62.854882	568.76442	294.91163	18840.024	7259.3462	505.90954
	21860	505.7335	-75.102056	580.83556	301.17067	18808.355	7259.3462	505.7335
	21870	506.61522	-59.37612	565.99134	293.47375	18806.689	7259.3462	506.61522
	21880	505.60485	-66.193245	571.79809	296.48462	19002.363	7259.3462	505.60485
	21890	505.98633	-63.850579	569.83691	295.46772	19355.948	7259.3462	505.98633
	21900	506.22513	-53.661701	559.88683	290.30848	19525.481	7259.3462	506.22513
	21910	505.97692	-62.644607	568.62152	294.83753	19770.273	7259.3462	505.97692
	21920	505.91693	-70.991038	576.90797	299.13416	19827.665	7259.3462	505.91693
	21930	505.74032	-75.971017	581.71133	301.62477	19500.031	7259.3462	505.74032
	21940	506.25685	-73.544421	579.80127	300.63437	19051.422	7259.3462	506.25685
	21950	506.14184	-65.400854	571.5427	296.3522	19151.685	7259.3462	506.14184
	21960	505.86329	-70.301791	576.16508	298.74896	19574.142	7259.3462	505.86329
	21970	506.08175	-61.021185	567.10294	294.05013	19808.853	7259.3462	506.08175
	21980	506.02848	-62.117321	568.1458	294.59086	19801.763	7259.3462	506.02848
	21990	505.55157	-78.131385	583.68295	302.64708	19553.645	7259.3462	505.55157
	22000	506.41754	-53.492885	559.91043	290.32072	19246.958	7259.3462	506.41754
	22010	506.05995	-74.942927	581.00288	301.25742	19250.698	7259.3462	506.05995
	22020	505.82215	-91.917426	597.73957	309.93561	19186.015	7259.3462	505.82215
	22030	505.72549	-84.29642	590.02191	305.93391	18905.057	7259.3462	505.72549
	22040	505.81266	-81.377955	587.19062	304.46585	19002.684	7259.3462	505.81266
	22050	506.5793	-46.916523	553.49583	286.99467	19127.062	7259.3462	506.5793
	22060	505.7324	-61.837075	567.56948	294.29203	19444.385	7259.3462	505.7324
	22070	506.09978	-65.676591	571.77637	296.47336	19656.859	7259.3462	506.09978
	22080	505.75568	-68.81397	574.56965	297.92171	19690.791	7259.3462	505.75568
	22090	505.89557	-76.472299	582.36787	301.96519	19831.659	7259.3462	505.89557
	22100	505.82828	-74.333762	580.16204	300.82144	19954.465	7259.3462	505.82828
	22110	506.32193	-54.504306	560.82623	290.79557	20151.019	7259.3462	506.32193
	22120	505.9262	-71.606768	577.53296	299.45823	20147.085	7259.3462	505.9262
	22130	505.86232	-80.898391	586.76071	304.24293	19723.229	7259.3462	505.86232
	22140	505.96687	-92.180838	598.14771	310.14724	19705.484	7259.3462	505.96687
	22150	506.14791	-90.111173	596.25909	309.16796	19583.298	7259.3462	506.14791
	22160	505.80786	-98.197196	604.00506	313.18435	19799.038	7259.3462	505.80786
	22170	505.68891	-85.416944	591.10585	306.49594	20339.585	7259.3462	505.68891
	22180	506.3078	-55.852454	562.16026	291.48728	20584.3	7259.3462	506.3078
	22190	505.9142	-59.909208	565.82341	293.38668	20915.062	7259.3462	505.9142
	22200	506.00542	-61.443906	567.44933	294.22973	20764.466	7259.3462	506.00542
	22210	505.53625	-76.646594	582.18284	301.86925	20540.402	7259.3462	505.53625
	22220	506.35875	-58.432208	564.79095	292.85133	20335.649	7259.3462	506.35875
	22230	505.89829	-61.984608	567.8829	294.45455	20380.348	7259.3462	505.89829
	22240	505.88799	-70.877754	576.76575	299.06042	20695.439	7259.3462	505.88799
	22250	505.7177	-74.311418	580.02911	300.75251	20903.117	7259.3462	505.7177
	22260	505.9425	-61.726089	567.66859	294.34343	20410.399	7259.3462	505.9425
	22270	506.19946	-57.252643	563.45211	292.15712	20203.994	7259.3462	506.19946
	22280	505.90768	-60.550959	566.45864	293.71605	19937.423	7259.3462	505.90768
	22290	506.04911	-79.698668	585.74778	303.71771	19781.089	7259.3462	506.04911
	22300	505.6966	-83.172796	588.8694	305.33632	19790.609	7259.3462	505.6966
	22310	506.0816	-73.05467	579.13627	300.28956	19817.046	7259.3462	506.0816
	22320	505.55186	-89.87131	595.42317	308.73453	20206.516	7259.3462	505.55186
	22330	506.40765	-49.027828	555.43548	288.0004	20211.998	7259.3462	506.40765
	22340	505.94054	-67.474344	573.41489	297.32295	20468.2	7259.3462	505.94054
	22350	506.1144	-68.37624	574.49064	297.88074	19788.185	7259.3462	506.1144
	22360	506.0385	-73.420999	579.4595	300.45716	20141.93	7259.3462	506.0385
	22370	505.86114	-90.714516	596.57566	309.33211	20210.977	7259.3462	505.86114
	22380	505.61035	-84.610295	590.22065	306.03695	19785.056	7259.3462	505.61035
	22390	505.85363	-76.778836	582.63247	302.10239	20206.586	7259.3462	505.85363
	22400	506.27891	-66.306805	572.58571	296.89302	19590.984	7259.3462	506.27891
	22410	506.00483	-60.57306	566.57789	293.77788	19407.05	7259.3462	506.00483
	22420	506.32304	-76.55463	582.87767	302.22953	19575.462	7259.3462	506.32304
	22430	505.13938	-86.179446	591.31883	306.60638	19572.785	7259.3462	505.13938
	22440	506.13327	-71.36316	577.49643	299.43929	19425.793	7259.3462	506.13327
	22450	505.68415	-80.992104	586.67626	304.19914	19100.063	7259.3462	505.68415
	22460	505.80098	-66.584172	572.38516	296.78902	18765.717	7259.3462	505.80098
	22470	506.37502	-62.564664	568.93968	295.0025	18561.87	7259.3462	506.37502
	22480	505.57476	-72.288468	577.86322	299.62947	18723.93	7259.3462	505.57476
	22490	506.56029	-69.149347	575.70964	298.51281	18757.463	7259.3462	506.56029
	22500	505.25965	-87.140382	592.40003	307.16699	19302.654	7259.3462	505.25965
	22510	506.12463	-62.812758	568.93739	295.00131	19290.68	7259.3462	506.12463
	22520	506.28646	-75.032997	581.31946	301.42157	19308.568	7259.3462	506.28646
	22530	505.81182	-78.260743	584.07256	302.84909	19276.629	7259.3462	505.81182
	22540	506.14844	-77.153352	583.30179	302.44944	19479.023	7259.3462	506.14844
	22550	505.57982	-97.30398	602.8838	312.60296	19431.613	7259.3462	505.57982
	22560	506.4723	-71.146871	577.61918	299.50293	19431.029	7259.3462	506.4723
	22570	505.76718	-86.344149	592.11133	307.0173	19633.758	7259.3462	505.76718
	22580	505.8105	-73.573281	579.38379	300.4179	19716.433	7259.3462	505.8105
	22590	506.7285	-42.833494	549.56199	284.95492	19711.074	7259.3462	506.7285
	22600	505.62236	-71.911895	577.53426	299.4589	20174.471	7259.3462	505.62236
	22610	505.63595	-75.2632	580.89915	301.20364	19833.598	7259.3462	505.63595
	22620	505.78152	-66.002704	571.78423	296.47743	19426.34	7259.3462	505.78152
	22630	506.3622	-49.035309	555.39751	287.98071	19049.517	7259.3462	506.3622
	22640	506.08369	-56.675096	562.75879	291.79763	18639.792	7259.3462	506.08369
	22650	505.5454	-70.209194	575.7546	298.53612	18482.145	7259.3462	505.5454
	22660	506.40257	-54.484474	560.88704	290.82711	18262.446	7259.3462	506.40257
	22670	506.08774	-71.706777	577.79452	299.59385	18547.932	7259.3462	506.08774
	22680	505.42963	-82.149868	587.5795	304.66748	18671.285	7259.3462	505.42963
	22690	505.80682	-63.822295	569.62912	295.35998	18784.427	7259.3462	505.80682
	22700	506.4048	-45.731712	552.13651	286.28984	19071.785	7259.3462	506.4048
	22710	505.93787	-50.717716	556.65558	288.63304	19067.402	7259.3462	505.93787
	22720	505.8483	-68.93734	574.78564	298.0337	18979.041	7259.3462	505.8483
	22730	505.91659	-73.088453	579.00505	300.22152	19329.494	7259.3462	505.91659
	22740	506.02222	-82.172976	588.1952	304.98673	19478.318	7259.3462	506.02222
	22750	505.49546	-85.884729	591.38018	306.63819	19943.316	7259.3462	505.49546
	22760	505.91131	-70.37922	576.29053	298.81401	19704.387	7259.3462	505.91131
	22770	506.66164	-52.140453	558.8021	289.74603	20028.914	7259.3462	506.66164
	22780	505.86904	-67.711801	573.58084	297.409	20241.182	7259.3462	505.86904
	22790	505.77638	-73.106933	578.88331	300.1584	20065.909	7259.3462	505.77638
	22800	505.79829	-77.381883	583.18017	302.38638	19847.307	7259.3462	505.79829
	22810	506.30152	-66.471608	572.77312	296.99019	19716.61	7259.3462	506.30152
	22820	505.35606	-88.533539	593.8896	307.93935	19744.277	7259.3462	505.35606
	22830	505.75762	-70.504061	576.26168	298.79905	19795.84	7259.3462	505.75762
	22840	506.55526	-36.959022	543.51428	281.8191	19108.408	7259.3462	506.55526
	22850	505.81138	-70.243958	576.05534	298.69206	19155.977	7259.3462	505.81138
	22860	505.76045	-74.028906	579.78935	300.62819	19362.013	7259.3462	505.76045
	22870	505.75106	-72.115155	577.86621	299.63102	19460.989	7259.3462	505.75106
	22880	505.96487	-77.722507	583.68738	302.64937	19381.425	7259.3462	505.96487
	22890	505.93492	-61.035288	566.97021	293.98131	19489.087	7259.3462	505.93492
	22900	505.86683	-53.424513	559.29135	289.99972	19747.084	7259.3462	505.86683
	22910	506.37999	-53.256092	559.63608	290.17846	19934.876	7259.3462	506.37999
	22920	505.77475	-63.879195	569.65395	295.37286	20152.681	7259.3462	505.77475
	22930	505.69132	-76.014155	581.70548	301.62173	19966.036	7259.3462	505.69132
	22940	505.99929	-52.362617	558.36191	289.51779	19695.893	7259.3462	505.99929
	22950	506.49773	-47.028798	553.52653	287.01058	19676.519	7259.3462	506.49773
	22960	505.97986	-67.76147	573.74133	297.49222	19737.822	7259.3462	505.97986
	22970	505.87908	-57.864222	563.74331	292.30811	19728.771	7259.3462	505.87908
	22980	506.21674	-67.376901	573.59365	297.41564	19829.839	7259.3462	506.21674
	22990	505.67541	-77.633439	583.30885	302.4531	19675.752	7259.3462	505.67541
	23000	505.87984	-69.842369	575.72221	298.51933	19523.803	7259.3462	505.87984
	23010	505.93683	-64.4909	570.42773	295.77407	19432.15	7259.3462	505.93683
	23020	506.57058	-49.736629	556.3072	288.4524	19510.57	7259.3462	506.57058
	23030	506.16165	-67.556706	573.71835	297.4803	19653.418	7259.3462	506.16165
	23040	505.36768	-101.71474	607.08242	314.78	19773.843	7259.3462	505.36768
	23050	506.27069	-66.27369	572.54438	296.87158	19810.284	7259.3462	506.27069
	23060	506.15707	-74.603585	580.76066	301.13183	19921.473	7259.3462	506.15707
	23070	505.63155	-87.111691	592.74324	307.34495	20046.599	7259.3462	505.63155
	23080	506.06758	-73.416936	579.48452	300.47013	20167.549	7259.3462	506.06758
	23090	506.06155	-66.583668	572.64522	296.92387	20521.885	7259.3462	506.06155
	23100	506.35909	-57.487927	563.84702	292.36189	20411.31	7259.3462	506.35909
	23110	505.65157	-81.525655	587.17722	304.4589	20407.332	7259.3462	505.65157
	23120	506.04589	-72.932488	578.97837	300.20769	20278.551	7259.3462	506.04589
	23130	506.43406	-61.975508	568.40957	294.72763	19902.193	7259.3462	506.43406
	23140	505.22923	-91.179612	596.40884	309.24561	19933.617	7259.3462	505.22923
	23150	506.21006	-68.541723	574.75179	298.01615	19554.531	7259.3462	506.21006
	23160	506.07572	-63.175479	569.2512	295.16403	19451.804	7259.3462	506.07572
	23170	506.14902	-75.412452	581.56147	301.54706	19176.752	7259.3462	506.14902
	23180	505.62077	-89.116866	594.73763	308.37907	19265.59	7259.3462	505.62077
	23190	506.03139	-58.393668	564.42506	292.66161	19486.079	7259.3462	506.03139
	23200	506.49712	-72.130349	578.62747	300.02574	19674.181	7259.3462	506.49712
	23210	505.52596	-84.625644	590.15161	306.00116	19919.124	7259.3462	505.52596
	23220	506.05366	-62.631322	568.68498	294.87044	20054.763	7259.3462	506.05366
	23230	505.97354	-89.106778	595.08031	308.55675	19727.549	7259.3462	505.97354
	23240	506.46454	-70.415312	576.87985	299.11958	18973.16	7259.3462	506.46454
	23250	505.4701	-105.91763	611.38774	317.01236	19278.919	7259.3462	505.4701
	23260	505.69763	-91.318925	597.01656	309.56072	19407.383	7259.3462	505.69763
	23270	506.40184	-59.58576	565.9876	293.47181	19637.482	7259.3462	506.40184
	23280	506.17754	-68.589484	574.76702	298.02405	19835.577	7259.3462	506.17754
	23290	505.9283	-65.258159	571.18646	296.16749	19807.652	7259.3462	505.9283
	23300	505.99239	-84.448022	590.44041	306.1509	20092.302	7259.3462	505.99239
	23310	506.08371	-78.336291	584.42	303.02924	20252.849	7259.3462	506.08371
	23320	505.42575	-92.916273	598.34202	310.24799	20356.98	7259.3462	505.42575
	23330	505.998	-80.786967	586.78497	304.25551	20152.719	7259.3462	505.998
	23340	506.36031	-47.645894	554.0062	287.2593	19609.763	7259.3462	506.36031
	23350	506.26406	-64.928374	571.19243	296.17058	19734.272	7259.3462	506.26406
	23360	505.41337	-77.278515	582.69188	302.13319	20072.398	7259.3462	505.41337
	23370	506.08459	-69.109351	575.19394	298.24542	20003.55	7259.3462	506.08459
	23380	505.8985	-75.043685	580.94219	301.22595	19833.437	7259.3462	505.8985
	23390	505.40429	-76.836827	582.24112	301.89947	19709.273	7259.3462	505.40429
	23400	506.23483	-56.972548	563.20738	292.03023	19583.755	7259.3462	506.23483
	23410	506.25667	-47.016392	553.27306	286.87916	19462.089	7259.3462	506.25667
	23420	506.38354	-60.88857	567.27211	294.13784	19602.501	7259.3462	506.38354
	23430	505.37446	-76.503889	581.87835	301.71136	19755.644	7259.3462	505.37446
	23440	506.05878	-51.474553	557.53333	289.08816	19374.665	7259.3462	506.05878
	23450	505.9207	-62.755233	568.67593	294.86574	19661.972	7259.3462	505.9207
	23460	505.81036	-55.553816	561.36418	291.0745	19691.748	7259.3462	505.81036
	23470	505.48305	-77.043674	582.52672	302.04755	19320.989	7259.3462	505.48305
	23480	506.05516	-54.998714	561.05388	290.91361	18824.528	7259.3462	506.05516
	23490	506.30525	-59.4691	565.77435	293.36124	18815.315	7259.3462	506.30525
	23500	505.24709	-83.881987	589.12908	305.47096	18961.62	7259.3462	505.24709
	23510	506.1733	-55.266033	561.43933	291.11347	19015.283	7259.3462	506.1733
	23520	506.04651	-78.230001	584.27651	302.95484	19116.522	7259.3462	506.04651
	23530	505.3909	-89.923251	595.31415	308.678	19180.493	7259.3462	505.3909
	23540	505.45812	-99.997042	605.45516	313.93624	19063.068	7259.3462	505.45812
	23550	506.08807	-78.3122	584.40027	303.01901	18903.388	7259.3462	506.08807
	23560	506.6003	-51.51492	558.11522	289.38988	19087.158	7259.3462	506.6003
	23570	505.15208	-102.63519	607.78727	315.14547	19319.236	7259.3462	505.15208
	23580	505.92981	-74.621785	580.5516	301.02343	19490.678	7259.3462	505.92981
	23590	506.35992	-66.478597	572.83851	297.0241	19821.408	7259.3462	506.35992
	23600	505.63031	-90.24941	595.87972	308.97126	20422.917	7259.3462	505.63031
	23610	505.58066	-77.142064	582.72273	302.14919	20717.266	7259.3462	505.58066
	23620	506.05185	-74.78291	580.83476	301.17025	20885.652	7259.3462	506.05185
	23630	506.38022	-62.607253	568.98747	295.02728	20963.154	7259.3462	506.38022
	23640	505.57538	-74.125079	579.70045	300.5821	21155.97	7259.3462	505.57538
	23650	505.80737	-65.05408	570.86145	295.99896	20999.416	7259.3462	505.80737
	23660	506.29614	-53.776291	560.07244	290.40472	20597.925	7259.3462	506.29614
	23670	506.06672	-65.223108	571.28983	296.22108	20349.916	7259.3462	506.06672
	23680	505.37205	-76.769079	582.14113	301.84762	20189.201	7259.3462	505.37205
	23690	505.86237	-70.31122	576.1736	298.75338	20107.34	7259.3462	505.86237
	23700	506.33634	-52.231418	558.56776	289.62453	19430.733	7259.3462	506.33634
	23710	505.8273	-65.133984	570.96128	296.05073	19063.962	7259.3462	505.8273
	23720	505.65058	-69.136441	574.78702	298.03442	19100.478	7259.3462	505.65058
	23730	506.65412	-42.426284	549.08041	284.70521	18792.649	7259.3462	506.65412
	23740	505.63555	-68.930043	574.56559	297.91961	18824.19	7259.3462	505.63555
	23750	505.54311	-67.606922	573.15003	297.18562	18765.884	7259.3462	505.54311
	23760	506.02758	-69.592849	575.62043	298.46655	19030.847	7259.3462	506.02758
	23770	505.87349	-65.273176	571.14666	296.14685	19384.398	7259.3462	505.87349
	23780	506.1707	-54.762863	560.93356	290.85123	19344.769	7259.3462	506.1707
	23790	505.50711	-83.247771	588.75488	305.27693	19474.787	7259.3462	505.50711
	23800	506.93353	-44.189135	551.12267	285.76415	19617.71	7259.3462	506.93353
	23810	506.04882	-73.682022	579.73085	300.59786	19821.315	7259.3462	506.04882
	23820	505.38206	-96.984081	602.36614	312.33455	19779.725	7259.3462	505.38206
	23830	505.94046	-77.671519	583.61198	302.61028	19498.992	7259.3462	505.94046
	23840	506.16703	-69.66285	575.82988	298.57516	19973.982	7259.3462	506.16703
	23850	506.29121	-62.555059	568.84627	294.95407	20052.377	7259.3462	506.29121
	23860	505.28992	-72.293361	577.58328	299.48432	20264.335	7259.3462	505.28992
	23870	506.39699	-54.455945	560.85293	290.80942	20136.807	7259.3462	506.39699
	23880	506.012	-56.986848	562.99884	291.9221	19738.563	7259.3462	506.012
	23890	505.62332	-79.991993	585.61531	303.64903	19667.977	7259.3462	505.62332
	23900	506.15808	-65.204562	571.36264	296.25884	19564.968	7259.3462	506.15808
	23910	505.54135	-83.688689	589.23004	305.52331	19827.053	7259.3462	505.54135
	23920	505.5727	-80.568606	586.14131	303.92177	20080.407	7259.3462	505.5727
	23930	505.6983	-60.314895	566.01319	293.48508	19868.125	7259.3462	505.6983
	23940	506.66655	-48.878414	555.54497	288.05717	19926.925	7259.3462	506.66655
	23950	506.22478	-51.310424	557.5352	289.08913	19732.561	7259.3462	506.22478
	23960	505.11743	-96.482318	601.59974	311.93716	19850.57	7259.3462	505.11743
	23970	506.14071	-76.915284	583.056	302.32199	19511.121	7259.3462	506.14071
	23980	506.21848	-65.222739	571.44122	296.29958	19486.634	7259.3462	506.21848
	23990	505.46031	-91.690237	597.15055	309.63019	19681.3	7259.3462	505.46031
	24000	505.68455	-76.362496	582.04705	301.79884	19807.611	7259.3462	505.68455
	24010	506.26751	-69.909963	576.17748	298.75539	19556.437	7259.3462	506.26751
	24020	506.53048	-62.800471	569.33095	295.20538	19802.121	7259.3462	506.53048
	24030	505.64344	-85.602077	591.24552	306.56836	20375.296	7259.3462	505.64344
	24040	505.81721	-76.381443	582.19865	301.87745	21372.325	7259.3462	505.81721
	24050	506.3151	-60.253797	566.5689	293.77322	21017.857	7259.3462	506.3151
	24060	505.72798	-87.259402	592.98738	307.47154	20599.221	7259.3462	505.72798
	24070	505.72533	-77.270567	582.9959	302.29083	20237.969	7259.3462	505.72533
	24080	506.33902	-76.818263	583.15728	302.37451	19707.289	7259.3462	506.33902
	24090	505.96933	-72.484483	578.45382	299.9357	19546.312	7259.3462	505.96933
	24100	506.06371	-63.619474	569.68318	295.38802	19378.394	7259.3462	506.06371
	24110	506.07033	-73.433405	579.50373	300.4801	19338.344	7259.3462	506.07033
	24120	506.27808	-52.585461	558.86354	289.77789	19127.858	7259.3462	506.27808
	24130	505.43095	-86.990178	592.42113	307.17793	19113.981	7259.3462	505.43095
	24140	505.582	-83.064047	588.64605	305.22051	18907.359	7259.3462	505.582
	24150	506.67125	-52.432368	559.10362	289.90238	18679.431	7259.3462	506.67125
	24160	506.11744	-64.725703	570.84315	295.98947	18616.103	7259.3462	506.11744
	24170	505.6905	-78.231371	583.92187	302.77096	18417.102	7259.3462	505.6905
	24180	505.68845	-91.350593	597.03904	309.57238	18329.557	7259.3462	505.68845
	24190	506.51215	-59.569825	566.08198	293.52074	18683.295	7259.3462	506.51215
	24200	505.6696	-70.159012	575.82861	298.5745	19233.016	7259.3462	505.6696
	24210	505.84366	-71.743021	577.58668	299.48608	19671.055	7259.3462	505.84366
	24220	506.16553	-50.102803	556.26833	288.43224	19840.732	7259.3462	506.16553
	24230	506.08217	-65.070738	571.15291	296.15009	20259.032	7259.3462	506.08217
	24240	505.84451	-81.329734	587.17424	304.45736	20465.219	7259.3462	505.84451
	24250	505.3208	-92.140911	597.46171	309.79154	20467.807	7259.3462	505.3208
	24260	506.32388	-70.138853	576.46273	298.9033	19939.289	7259.3462	506.32388
	24270	506.00374	-77.466214	583.46995	302.53663	19283.463	7259.3462	506.00374
	24280	505.98066	-83.103031	589.08369	305.44743	19280.787	7259.3462	505.98066
	24290	506.16684	-63.159175	569.32601	295.20282	19325.996	7259.3462	506.16684
	24300	505.93268	-86.665214	592.59789	307.26958	19704.721	7259.3462	505.93268
	24310	505.76251	-83.653394	589.4159	305.61968	19802.106	7259.3462	505.76251
	24320	505.66118	-70.709274	576.37046	298.85545	19947.716	7259.3462	505.66118
	24330	506.72684	-57.717274	564.44411	292.67149	19946.807	7259.3462	506.72684
	24340	506.05452	-53.575588	559.63011	290.17537	20044.526	7259.3462	506.05452
	24350	505.92728	-71.347841	577.27512	299.32453	20135.24	7259.3462	505.92728
	24360	505.78438	-78.129138	583.91352	302.76663	20052.354	7259.3462	505.78438
	24370	505.93678	-72.2844	578.22118	299.81508	20093.362	7259.3462	505.93678
	24380	506.23024	-80.144415	586.37465	304.04276	19983.953	7259.3462	506.23024
	24390	505.52279	-79.978999	585.50179	303.59017	19902.163	7259.3462	505.52279
	24400	506.41921	-68.799924	575.21914	298.25848	19737.21	7259.3462	506.41921
	24410	505.85541	-61.162548	567.01796	294.00606	19903.514	7259.3462	505.85541
	24420	505.89078	-72.673908	578.56469	299.99319	20266.063	7259.3462	505.89078
	24430	505.70809	-85.993523	591.70162	306.80485	20400.327	7259.3462	505.70809
	24440	505.8929	-78.559327	584.45222	303.04595	19727.988	7259.3462	505.8929
	24450	505.97118	-90.041506	596.01269	309.0402	19665.467	7259.3462	505.97118
	24460	505.78875	-68.36296	574.15171	297.705	19613.022	7259.3462	505.78875
	24470	506.57638	-54.238401	560.81478	290.78964	19763.565	7259.3462	506.57638
	24480	505.56393	-76.339003	581.90293	301.72411	20006.049	7259.3462	505.56393
	24490	506.0295	-69.789862	575.81936	298.5697	19869.877	7259.3462	506.0295
	24500	505.58268	-87.508464	593.09114	307.52534	19848.723	7259.3462	505.58268
	24510	506.09408	-61.271725	567.36581	294.18643	19388.815	7259.3462	506.09408
	24520	506.48054	-66.890835	573.37137	297.30039	19318.036	7259.3462	506.48054
	24530	505.55837	-80.500742	586.05911	303.87915	19408.293	7259.3462	505.55837
	24540	506.22592	-66.576632	572.80255	297.00545	19125.331	7259.3462	506.22592
	24550	505.69073	-88.56435	594.25508	308.12886	19255.501	7259.3462	505.69073
	24560	506.04404	-76.141989	582.18603	301.8709	19545.673	7259.3462	506.04404
	24570	505.87292	-87.581608	593.45453	307.71376	19907.816	7259.3462	505.87292
	24580	505.91699	-68.657868	574.57486	297.92441	20204.478	7259.3462	505.91699
	24590	506.43779	-58.40242	564.84021	292.87687	20688.889	7259.3462	506.43779
	24600	505.7619	-79.330777	585.09268	303.37804	20650.503	7259.3462	505.7619
	24610	506.02329	-67.147345	573.17064	297.19631	20810.118	7259.3462	506.02329
	24620	505.94473	-93.806564	599.7513	310.97872	20880.291	7259.3462	505.94473
	24630	505.75495	-72.996903	578.75185	300.09024	20878.317	7259.3462	505.75495
	24640	506.22632	-71.828716	578.05503	299.72893	20610.574	7259.3462	506.22632
	24650	506.07076	-74.237607	580.30836	300.89731	20434.32	7259.3462	506.07076
	24660	506.03298	-77.139258	583.17224	302.38226	20004.362	7259.3462	506.03298
	24670	505.57853	-96.543637	602.12217	312.20804	19801.133	7259.3462	505.57853
	24680	505.94237	-66.610326	572.5527	296.8759	19288.568	7259.3462	505.94237
	24690	506.3529	-73.246866	579.59976	300.52989	18731.585	7259.3462	506.3529
	24700	506.30218	-55.077056	561.37924	291.08232	18268.398	7259.3462	506.30218
	24710	505.64244	-72.811671	578.45411	299.93585	18451.149	7259.3462	505.64244
	24720	505.99349	-72.922363	578.91586	300.17527	18954.687	7259.3462	505.99349
	24730	506.12622	-46.488805	552.61502	286.53796	19097.085	7259.3462	506.12622
	24740	505.81596	-61.08983	566.9058	293.9479	19061.958	7259.3462	505.81596
	24750	506.40792	-46.651955	553.05988	286.76862	19053.233	7259.3462	506.40792
	24760	505.7632	-68.080559	573.84376	297.54533	19008.423	7259.3462	505.7632
	24770	506.14314	-81.4973	587.64044	304.69908	18971.487	7259.3462	506.14314
	24780	505.61186	-86.060259	591.67212	306.78956	19293.913	7259.3462	505.61186
	24790	506.23166	-65.911497	572.14315	296.66354	19591.454	7259.3462	506.23166
	24800	506.3327	-49.343312	555.67602	288.12512	19684.716	7259.3462	506.3327
	24810	505.72627	-68.798759	574.52503	297.89858	20239.362	7259.3462	505.72627
	24820	506.06287	-64.952826	571.0157	296.07894	20298.317	7259.3462	506.06287
	24830	505.88163	-70.367893	576.24952	298.79275	20507.496	7259.3462	505.88163
	24840	505.93275	-85.823666	591.75641	306.83327	20421.862	7259.3462	505.93275
	24850	505.46495	-77.668993	583.13395	302.36241	19709.989	7259.3462	505.46495
	24860	506.70563	-52.423643	559.12927	289.91568	19359.487	7259.3462	506.70563
	24870	505.89016	-61.056027	566.94618	293.96885	19284.408	7259.3462	505.89016
	24880	506.03274	-73.771922	579.80466	300.63613	18819.609	7259.3462	506.03274
	24890	505.55371	-88.793594	594.3473	308.17668	18992.377	7259.3462	505.55371
	24900	505.64746	-70.529944	576.17741	298.75535	18982.939	7259.3462	505.64746
	24910	506.35111	-49.441493	555.7926	288.18557	19033.915	7259.3462	506.35111
	24920	505.58888	-44.451265	550.04015	285.20285	19182.896	7259.3462	505.58888
	24930	506.61637	-36.58027	543.19664	281.6544	18865.754	7259.3462	506.61637
	24940	505.82305	-62.137549	567.9606	294.49483	18762.836	7259.3462	505.82305
	24950	505.70404	-68.737229	574.44127	297.85515	18818.484	7259.3462	505.70404
	24960	505.54304	-92.691204	598.23424	310.19211	18538.917	7259.3462	505.54304
	24970	506.17228	-48.096077	554.26836	287.39523	18116.292	7259.3462	506.17228
	24980	506.47169	-50.109496	556.58118	288.59446	18226.169	7259.3462	506.47169
	24990	505.7833	-68.753903	574.53721	297.90489	18569.014	7259.3462	505.7833
